Kmac Spectrometer Data File
--- Measurement Setting ---
Type: Reference Spectrum
Date: Tue Dec 04 16:58:53 2018
User: (Reserved by KMAC)
Serial: (Reserved by KMAC)
Channel: No. 1
Integration Time: 100
Average: 10
Boxcar: 5
Electrical Dark: (Reserved by KMAC)
Time Normalize: (Reserved by KMAC)
Dual-beam: (Reserved by KMAC)
Reference Ch: (Reserved by KMAC)
--- Measurement Data ---
    0        341.9        55.25
    1      342.363      59.6714
    2      342.825      60.9375
    3      343.287      62.0333
    4       343.75        62.87
    5      344.212      64.5909
    6      344.674      68.9636
    7      345.136      72.4091
    8      345.598      76.4273
    9       346.06      80.2636
   10      346.522      81.1636
   11      346.984      79.1455
   12      347.445      78.1909
   13      347.907      78.5182
   14      348.368      79.9364
   15       348.83      82.1727
   16      349.291      82.4182
   17      349.752      80.9182
   18      350.213         78.3
   19      350.674      76.8636
   20      351.135      79.7909
   21      351.596      86.6182
   22      352.057      92.8364
   23      352.517      96.4818
   24      352.978      99.3091
   25      353.439         99.9
   26      353.899      99.3273
   27      354.359      100.845
   28       354.82      103.791
   29       355.28      107.245
   30       355.74      109.718
   31        356.2      108.491
   32       356.66      104.627
   33       357.12      102.064
   34       357.58        100.9
   35      358.039      100.964
   36      358.499      103.273
   37      358.958      107.027
   38      359.418      109.009
   39      359.877      109.873
   40      360.336      111.636
   41      360.796      113.745
   42      361.255      120.964
   43      361.714      131.518
   44      362.173      139.245
   45      362.631      144.691
   46       363.09      148.536
   47      363.549      151.336
   48      364.007      155.145
   49      364.466      160.636
   50      364.924      166.255
   51      365.383      171.645
   52      365.841      177.773
   53      366.299      179.236
   54      366.757      177.673
   55      367.215      179.473
   56      367.673      182.736
   57      368.131      187.045
   58      368.588      191.509
   59      369.046      194.118
   60      369.504      196.436
   61      369.961      201.373
   62      370.418      206.836
   63      370.876      208.964
   64      371.333      211.391
   65       371.79        215.4
   66      372.247      217.055
   67      372.704      219.245
   68      373.161      222.027
   69      373.618      224.955
   70      374.074      228.573
   71      374.531      230.745
   72      374.987      229.927
   73      375.444      229.127
   74        375.9      230.936
   75      376.356      235.782
   76      376.812      242.909
   77      377.269      250.236
   78      377.725      255.527
   79       378.18      259.427
   80      378.636      263.709
   81      379.092      267.655
   82      379.548      271.864
   83      380.003      278.345
   84      380.459      286.845
   85      380.914      296.245
   86      381.369      303.936
   87      381.825      309.227
   88       382.28      313.945
   89      382.735      322.118
   90       383.19        334.7
   91      383.645      345.791
   92      384.099      355.036
   93      384.554      365.091
   94      385.009      374.418
   95      385.463      380.682
   96      385.918      383.309
   97      386.372      386.045
   98      386.826      388.764
   99       387.28      393.827
  100      387.734      399.718
  101      388.188      402.891
  102      388.642      405.473
  103      389.096      407.582
  104       389.55      410.855
  105      390.004      414.655
  106      390.457      419.664
  107      390.911      427.782
  108      391.364      434.718
  109      391.817      441.227
  110       392.27      448.682
  111      392.724        455.4
  112      393.177      461.573
  113       393.63      469.018
  114      394.082      477.364
  115      394.535      483.364
  116      394.988      488.355
  117       395.44      496.918
  118      395.893      509.073
  119      396.345      521.427
  120      396.798      535.755
  121       397.25      550.282
  122      397.702      563.018
  123      398.154      575.809
  124      398.606      589.009
  125      399.058      604.364
  126       399.51      623.073
  127      399.962      641.836
  128      400.413        656.2
  129      400.865      667.527
  130      401.316      679.291
  131      401.768        690.5
  132      402.219      701.064
  133       402.67      712.027
  134      403.121      723.609
  135      403.572      736.855
  136      404.023      750.282
  137      404.474      762.591
  138      404.925      777.109
  139      405.375      793.964
  140      405.826      812.273
  141      406.276      831.382
  142      406.727      848.264
  143      407.177      865.382
  144      407.627      886.209
  145      408.078      908.682
  146      408.528      930.509
  147      408.978      954.345
  148      409.427      981.709
  149      409.877      1008.29
  150      410.327      1033.38
  151      410.777      1060.39
  152      411.226      1087.63
  153      411.675      1116.55
  154      412.125      1144.88
  155      412.574      1166.87
  156      413.023      1188.36
  157      413.472      1214.05
  158      413.921      1238.21
  159       414.37      1257.32
  160      414.819      1275.68
  161      415.268      1294.72
  162      415.716      1312.22
  163      416.165      1329.43
  164      416.613      1348.01
  165      417.062      1367.63
  166       417.51      1388.99
  167      417.958      1409.73
  168      418.406      1426.19
  169      418.854       1442.4
  170      419.302      1463.15
  171       419.75      1484.64
  172      420.198      1505.82
  173      420.645      1525.29
  174      421.093      1542.38
  175       421.54      1556.61
  176      421.988      1569.98
  177      422.435      1586.99
  178      422.882      1606.01
  179      423.329      1626.22
  180      423.776      1645.25
  181      424.223      1661.46
  182       424.67      1676.92
  183      425.117      1692.77
  184      425.564      1708.84
  185       426.01      1724.91
  186      426.457      1741.62
  187      426.903      1760.15
  188      427.349      1778.17
  189      427.795      1795.03
  190      428.242      1811.02
  191      428.688      1827.33
  192      429.134      1844.55
  193      429.579      1863.13
  194      430.025      1881.72
  195      430.471      1901.26
  196      430.916      1923.62
  197      431.362      1949.13
  198      431.807      1974.34
  199      432.253      1997.42
  200      432.698      2020.39
  201      433.143      2043.29
  202      433.588      2067.03
  203      434.033      2091.08
  204      434.478      2115.09
  205      434.923      2139.42
  206      435.367      2164.13
  207      435.812      2189.21
  208      436.256      2212.77
  209      436.701       2234.4
  210      437.145       2257.2
  211      437.589      2280.05
  212      438.034      2304.17
  213      438.478      2328.81
  214      438.922      2351.69
  215      439.365      2374.33
  216      439.809      2397.74
  217      440.253      2423.44
  218      440.697      2450.65
  219       441.14      2478.05
  220      441.583      2506.82
  221      442.027      2537.79
  222       442.47      2570.83
  223      442.913       2603.4
  224      443.356      2637.36
  225      443.799      2674.11
  226      444.242      2711.82
  227      444.685      2749.75
  228      445.128      2784.25
  229       445.57      2817.86
  230      446.013      2852.57
  231      446.455      2886.16
  232      446.897      2918.02
  233       447.34      2948.26
  234      447.782      2980.17
  235      448.224      3013.75
  236      448.666      3046.75
  237      449.108      3078.59
  238      449.549      3112.66
  239      449.991      3150.25
  240      450.433      3185.04
  241      450.874      3215.82
  242      451.316      3247.45
  243      451.757      3281.74
  244      452.198      3318.32
  245      452.639      3356.03
  246       453.08      3391.76
  247      453.521      3427.31
  248      453.962      3465.65
  249      454.403      3502.35
  250      454.844      3536.94
  251      455.284      3575.62
  252      455.725      3620.69
  253      456.165      3667.55
  254      456.606      3713.73
  255      457.046      3759.95
  256      457.486         3806
  257      457.926      3853.55
  258      458.366      3900.88
  259      458.806      3948.19
  260      459.246      3999.04
  261      459.685      4054.95
  262      460.125      4111.47
  263      460.564      4166.74
  264      461.004      4222.87
  265      461.443      4277.84
  266      461.882      4333.57
  267      462.321      4392.48
  268       462.76      4455.04
  269      463.199      4520.61
  270      463.638       4587.7
  271      464.077      4654.54
  272      464.516      4717.98
  273      464.954      4783.83
  274      465.393      4855.68
  275      465.831      4930.48
  276      466.269      5006.48
  277      466.708      5081.79
  278      467.146      5155.81
  279      467.584      5229.93
  280      468.022      5306.27
  281      468.459      5380.85
  282      468.897      5453.39
  283      469.335      5530.67
  284      469.772         5608
  285       470.21      5682.06
  286      470.647       5759.3
  287      471.084      5841.37
  288      471.522      5923.95
  289      471.959      6007.16
  290      472.396      6090.36
  291      472.833       6170.4
  292      473.269      6255.96
  293      473.706      6348.18
  294      474.143       6435.8
  295      474.579      6518.94
  296      475.016      6596.46
  297      475.452      6667.25
  298      475.888      6737.38
  299      476.325      6811.35
  300      476.761      6885.97
  301      477.197      6960.55
  302      477.633      7042.85
  303      478.068      7127.42
  304      478.504      7207.64
  305       478.94      7287.61
  306      479.375      7370.91
  307      479.811      7459.33
  308      480.246      7550.58
  309      480.681      7641.48
  310      481.116      7731.65
  311      481.551      7822.04
  312      481.986      7911.21
  313      482.421      7992.61
  314      482.856      8065.24
  315      483.291      8135.75
  316      483.725      8205.84
  317       484.16      8273.41
  318      484.594      8340.76
  319      485.028       8408.7
  320      485.462      8474.99
  321      485.897      8537.69
  322      486.331      8594.97
  323      486.765      8650.97
  324      487.198      8707.59
  325      487.632      8764.63
  326      488.066      8823.62
  327      488.499      8880.19
  328      488.933      8931.68
  329      489.366      8978.88
  330      489.799      9022.06
  331      490.233      9063.17
  332      490.666      9103.55
  333      491.099      9146.02
  334      491.532      9185.97
  335      491.964      9223.68
  336      492.397      9262.74
  337       492.83      9298.71
  338      493.262      9334.51
  339      493.695      9371.47
  340      494.127       9405.2
  341      494.559       9435.5
  342      494.991      9463.32
  343      495.423      9491.63
  344      495.855      9516.75
  345      496.287      9538.41
  346      496.719      9560.69
  347      497.151      9578.76
  348      497.582      9591.33
  349      498.014      9603.12
  350      498.445      9617.07
  351      498.876      9634.53
  352      499.307      9654.55
  353      499.739      9674.48
  354       500.17         9690
  355        500.6      9706.67
  356      501.031      9726.69
  357      501.462      9743.09
  358      501.893      9759.35
  359      502.323      9780.18
  360      502.754      9802.73
  361      503.184      9823.99
  362      503.614      9842.75
  363      504.044       9858.6
  364      504.474      9873.59
  365      504.904      9892.01
  366      505.334      9910.29
  367      505.764      9926.69
  368      506.194      9943.75
  369      506.623      9961.15
  370      507.053      9977.88
  371      507.482       9996.9
  372      507.911      10019.1
  373      508.341      10041.4
  374       508.77      10066.6
  375      509.199      10093.5
  376      509.628      10119.5
  377      510.056      10148.2
  378      510.485      10178.3
  379      510.914      10209.4
  380      511.342      10241.9
  381      511.771        10275
  382      512.199      10306.7
  383      512.627      10339.6
  384      513.055      10377.7
  385      513.484      10415.2
  386      513.912      10453.2
  387      514.339        10493
  388      514.767      10530.9
  389      515.195      10571.4
  390      515.622      10615.1
  391       516.05      10655.4
  392      516.477      10693.6
  393      516.905      10731.9
  394      517.332      10768.7
  395      517.759        10804
  396      518.186      10840.8
  397      518.613      10880.8
  398       519.04      10922.6
  399      519.466      10964.5
  400      519.893      11004.5
  401      520.319      11045.2
  402      520.746      11093.8
  403      521.172      11148.5
  404      521.598      11201.7
  405      522.025      11255.1
  406      522.451      11311.3
  407      522.877        11370
  408      523.302      11430.4
  409      523.728      11491.9
  410      524.154      11556.2
  411      524.579      11622.3
  412      525.005      11687.6
  413       525.43      11752.8
  414      525.855      11818.9
  415      526.281      11891.3
  416      526.706      11966.9
  417      527.131      12041.8
  418      527.556      12120.6
  419       527.98      12199.8
  420      528.405        12275
  421       528.83      12348.2
  422      529.254      12424.9
  423      529.679      12509.6
  424      530.103      12596.8
  425      530.527      12682.6
  426      530.951      12767.1
  427      531.375      12851.2
  428      531.799      12936.5
  429      532.223      13019.2
  430      532.647      13101.3
  431       533.07        13186
  432      533.494        13273
  433      533.917      13359.6
  434      534.341      13441.7
  435      534.764      13524.6
  436      535.187      13611.6
  437       535.61      13700.9
  438      536.033      13791.2
  439      536.456      13880.6
  440      536.879      13968.4
  441      537.301      14053.7
  442      537.724      14142.5
  443      538.146      14234.5
  444      538.569      14326.1
  445      538.991      14418.1
  446      539.413      14507.2
  447      539.835      14594.3
  448      540.257        14680
  449      540.679      14765.1
  450      541.101      14850.2
  451      541.522      14937.5
  452      541.944      15029.8
  453      542.366      15121.7
  454      542.787      15206.5
  455      543.208      15284.5
  456      543.629      15353.7
  457      544.051        15415
  458      544.472        15468
  459      544.892      15512.9
  460      545.313      15550.3
  461      545.734      15581.4
  462      546.155      15604.9
  463      546.575      15618.3
  464      546.995      15622.8
  465      547.416      15624.1
  466      547.836      15624.2
  467      548.256      15624.2
  468      548.676      15624.2
  469      549.096      15624.2
  470      549.516      15624.2
  471      549.936      15624.2
  472      550.355      15624.2
  473      550.775      15624.2
  474      551.194      15624.2
  475      551.614      15624.2
  476      552.033      15624.2
  477      552.452      15624.2
  478      552.871      15624.2
  479       553.29      15624.2
  480      553.709      15624.2
  481      554.127      15624.2
  482      554.546      15624.2
  483      554.965      15624.2
  484      555.383      15624.2
  485      555.801      15624.2
  486       556.22      15624.2
  487      556.638      15624.2
  488      557.056      15624.2
  489      557.474      15624.2
  490      557.892      15624.2
  491      558.309      15624.2
  492      558.727      15624.2
  493      559.145      15624.2
  494      559.562      15624.2
  495       559.98      15624.2
  496      560.397      15624.2
  497      560.814      15624.2
  498      561.231      15624.2
  499      561.648      15624.2
  500      562.065      15624.2
  501      562.482      15624.2
  502      562.898      15624.2
  503      563.315      15624.2
  504      563.731      15624.2
  505      564.148      15624.2
  506      564.564      15624.2
  507       564.98      15624.2
  508      565.396      15624.2
  509      565.812      15624.2
  510      566.228      15624.2
  511      566.644      15624.2
  512       567.06      15624.2
  513      567.475      15624.2
  514      567.891      15624.2
  515      568.306      15624.2
  516      568.721      15624.2
  517      569.136      15624.2
  518      569.552      15624.2
  519      569.967      15624.2
  520      570.381      15624.2
  521      570.796      15624.2
  522      571.211      15624.2
  523      571.625      15624.2
  524       572.04      15624.2
  525      572.454      15624.2
  526      572.869      15624.2
  527      573.283      15624.2
  528      573.697      15624.2
  529      574.111      15624.2
  530      574.525      15624.2
  531      574.939      15624.2
  532      575.352      15624.2
  533      575.766      15624.2
  534      576.179      15624.2
  535      576.593      15624.2
  536      577.006      15624.2
  537      577.419      15624.2
  538      577.832      15624.2
  539      578.245      15624.2
  540      578.658      15624.2
  541      579.071      15624.2
  542      579.484      15624.2
  543      579.896      15624.2
  544      580.309      15624.2
  545      580.721      15624.2
  546      581.133      15624.2
  547      581.546      15624.2
  548      581.958      15624.2
  549       582.37      15624.2
  550      582.781      15624.2
  551      583.193      15624.2
  552      583.605      15624.2
  553      584.017      15624.2
  554      584.428      15624.2
  555      584.839      15624.2
  556      585.251      15624.2
  557      585.662      15624.2
  558      586.073      15624.2
  559      586.484      15624.2
  560      586.895      15624.2
  561      587.306      15624.2
  562      587.716      15624.2
  563      588.127      15624.2
  564      588.537      15624.2
  565      588.948      15624.2
  566      589.358      15624.2
  567      589.768      15624.2
  568      590.178      15624.2
  569      590.588      15624.2
  570      590.998      15624.2
  571      591.408      15624.2
  572      591.817      15624.2
  573      592.227      15624.2
  574      592.636      15624.2
  575      593.046      15624.2
  576      593.455      15624.2
  577      593.864      15624.2
  578      594.273      15624.2
  579      594.682      15624.2
  580      595.091      15624.2
  581        595.5      15624.2
  582      595.908      15624.2
  583      596.317      15624.2
  584      596.725      15624.2
  585      597.134      15624.2
  586      597.542      15624.2
  587       597.95      15624.2
  588      598.358      15624.2
  589      598.766      15624.2
  590      599.174      15624.2
  591      599.582      15624.2
  592      599.989      15624.2
  593      600.397      15624.2
  594      600.804      15624.2
  595      601.212      15624.2
  596      601.619      15624.2
  597      602.026      15624.2
  598      602.433      15624.2
  599       602.84      15624.2
  600      603.247      15624.2
  601      603.654      15624.2
  602       604.06      15624.2
  603      604.467      15624.2
  604      604.873      15624.2
  605      605.279      15624.2
  606      605.686      15624.2
  607      606.092      15624.2
  608      606.498      15624.2
  609      606.904      15624.2
  610      607.309      15624.2
  611      607.715      15624.2
  612      608.121      15624.2
  613      608.526      15624.2
  614      608.932      15624.2
  615      609.337      15624.2
  616      609.742      15624.2
  617      610.147      15624.2
  618      610.552      15624.2
  619      610.957      15624.2
  620      611.362      15624.2
  621      611.766      15624.2
  622      612.171      15624.2
  623      612.576      15624.2
  624       612.98      15624.2
  625      613.384      15624.2
  626      613.788      15624.2
  627      614.192      15624.2
  628      614.596      15624.2
  629          615      15624.2
  630      615.404      15624.2
  631      615.808      15624.2
  632      616.211      15624.2
  633      616.615      15624.2
  634      617.018      15624.2
  635      617.421      15624.2
  636      617.824      15624.2
  637      618.227      15624.2
  638       618.63      15624.2
  639      619.033      15624.2
  640      619.436      15624.2
  641      619.838      15624.2
  642      620.241      15624.2
  643      620.643      15624.2
  644      621.046      15624.2
  645      621.448      15624.2
  646       621.85      15624.2
  647      622.252      15624.2
  648      622.654      15624.2
  649      623.056      15624.2
  650      623.457      15624.2
  651      623.859      15624.2
  652       624.26      15624.2
  653      624.662      15624.2
  654      625.063      15624.2
  655      625.464      15624.2
  656      625.865      15624.2
  657      626.266      15624.2
  658      626.667      15624.2
  659      627.068      15624.2
  660      627.468      15624.2
  661      627.869      15624.2
  662      628.269      15624.2
  663       628.67      15624.2
  664       629.07      15624.2
  665       629.47      15624.2
  666       629.87      15624.2
  667       630.27      15624.2
  668       630.67      15624.2
  669       631.07      15624.2
  670      631.469      15624.2
  671      631.869      15624.2
  672      632.268      15624.2
  673      632.667      15624.2
  674      633.067      15624.2
  675      633.466      15624.2
  676      633.865      15624.2
  677      634.264      15624.2
  678      634.662      15624.2
  679      635.061      15624.2
  680       635.46      15624.2
  681      635.858      15624.2
  682      636.256      15624.2
  683      636.655      15624.2
  684      637.053      15624.2
  685      637.451      15624.2
  686      637.849      15624.2
  687      638.247      15624.2
  688      638.644      15624.2
  689      639.042      15624.2
  690       639.44      15624.2
  691      639.837      15624.2
  692      640.234      15624.2
  693      640.631      15624.2
  694      641.029      15624.2
  695      641.426      15624.2
  696      641.822      15624.2
  697      642.219      15624.2
  698      642.616      15624.2
  699      643.013      15624.2
  700      643.409      15624.2
  701      643.805      15624.2
  702      644.202      15624.2
  703      644.598      15624.2
  704      644.994      15624.2
  705       645.39      15624.2
  706      645.786      15624.2
  707      646.181      15624.2
  708      646.577      15624.2
  709      646.973      15624.2
  710      647.368      15624.2
  711      647.763      15624.2
  712      648.158      15624.2
  713      648.554      15624.2
  714      648.949      15624.2
  715      649.344      15624.2
  716      649.738      15624.2
  717      650.133      15624.2
  718      650.528      15624.2
  719      650.922      15624.2
  720      651.316      15624.2
  721      651.711      15624.2
  722      652.105      15624.2
  723      652.499      15624.2
  724      652.893      15624.2
  725      653.287      15624.2
  726       653.68      15624.2
  727      654.074      15624.2
  728      654.468      15624.2
  729      654.861      15624.2
  730      655.254      15624.2
  731      655.648      15624.2
  732      656.041      15624.2
  733      656.434      15624.2
  734      656.827      15624.2
  735      657.219      15624.2
  736      657.612      15624.2
  737      658.005      15624.2
  738      658.397      15624.2
  739      658.789      15624.2
  740      659.182      15624.2
  741      659.574      15624.2
  742      659.966      15624.2
  743      660.358      15624.2
  744       660.75      15624.2
  745      661.141      15624.2
  746      661.533      15624.2
  747      661.924      15624.2
  748      662.316      15624.2
  749      662.707      15624.2
  750      663.098      15624.2
  751      663.489      15624.2
  752       663.88      15624.2
  753      664.271      15624.2
  754      664.662      15624.2
  755      665.053      15624.2
  756      665.443      15624.2
  757      665.834      15624.2
  758      666.224      15624.2
  759      666.614      15624.2
  760      667.004      15624.2
  761      667.394      15624.2
  762      667.784      15624.2
  763      668.174      15624.2
  764      668.564      15624.2
  765      668.953      15624.2
  766      669.343      15624.2
  767      669.732      15624.2
  768      670.122      15624.2
  769      670.511      15624.2
  770        670.9      15624.2
  771      671.289      15624.2
  772      671.678      15624.2
  773      672.066      15624.2
  774      672.455      15624.2
  775      672.843      15624.2
  776      673.232      15624.2
  777       673.62      15624.2
  778      674.008      15624.2
  779      674.396      15624.2
  780      674.784      15624.2
  781      675.172      15624.2
  782       675.56      15624.2
  783      675.948      15624.2
  784      676.335      15624.2
  785      676.723      15624.2
  786       677.11      15624.2
  787      677.497      15624.2
  788      677.884      15624.2
  789      678.271      15624.2
  790      678.658      15624.2
  791      679.045      15624.2
  792      679.432      15624.2
  793      679.818      15624.2
  794      680.205      15624.2
  795      680.591      15624.2
  796      680.978      15624.2
  797      681.364      15624.2
  798       681.75      15624.2
  799      682.136      15624.2
  800      682.522      15624.2
  801      682.907      15624.2
  802      683.293      15624.2
  803      683.678      15624.2
  804      684.064      15624.2
  805      684.449      15624.2
  806      684.834      15624.2
  807      685.219      15624.2
  808      685.604      15624.2
  809      685.989      15624.2
  810      686.374      15624.2
  811      686.759      15624.2
  812      687.143      15624.2
  813      687.528      15624.2
  814      687.912      15624.2
  815      688.296      15624.2
  816       688.68      15624.2
  817      689.064      15624.2
  818      689.448      15624.2
  819      689.832      15624.2
  820      690.216      15624.2
  821      690.599      15624.2
  822      690.983      15624.2
  823      691.366      15624.2
  824      691.749      15624.2
  825      692.132      15624.2
  826      692.515      15624.2
  827      692.898      15624.2
  828      693.281      15624.2
  829      693.664      15624.2
  830      694.046      15624.2
  831      694.429      15624.2
  832      694.811      15624.2
  833      695.193      15624.2
  834      695.575      15624.2
  835      695.958      15624.2
  836      696.339      15624.2
  837      696.721      15624.2
  838      697.103      15624.2
  839      697.485      15624.2
  840      697.866      15624.2
  841      698.247      15624.2
  842      698.629      15624.2
  843       699.01      15624.2
  844      699.391      15624.2
  845      699.772      15624.2
  846      700.153      15624.2
  847      700.533      15624.2
  848      700.914      15624.2
  849      701.295      15624.2
  850      701.675      15624.2
  851      702.055      15624.2
  852      702.435      15624.2
  853      702.816      15624.2
  854      703.195      15624.2
  855      703.575      15624.2
  856      703.955      15624.2
  857      704.335      15624.2
  858      704.714      15624.2
  859      705.094      15624.2
  860      705.473      15624.2
  861      705.852      15624.2
  862      706.231      15624.2
  863       706.61      15624.2
  864      706.989      15624.2
  865      707.368      15624.2
  866      707.746      15624.2
  867      708.125      15624.2
  868      708.503      15624.2
  869      708.882      15624.2
  870       709.26      15624.2
  871      709.638      15624.2
  872      710.016      15624.2
  873      710.394      15624.2
  874      710.772      15624.2
  875      711.149      15624.2
  876      711.527      15624.2
  877      711.904      15624.2
  878      712.282      15624.2
  879      712.659      15624.2
  880      713.036      15624.2
  881      713.413      15624.2
  882       713.79      15624.2
  883      714.167      15624.2
  884      714.543      15624.2
  885       714.92      15624.2
  886      715.296      15624.2
  887      715.673      15624.2
  888      716.049      15624.2
  889      716.425      15624.2
  890      716.801      15624.2
  891      717.177      15624.2
  892      717.553      15624.2
  893      717.928      15624.2
  894      718.304      15624.2
  895      718.679      15624.2
  896      719.055      15624.2
  897       719.43      15624.2
  898      719.805      15624.2
  899       720.18      15624.2
  900      720.555      15624.2
  901       720.93      15624.2
  902      721.304      15624.2
  903      721.679      15624.2
  904      722.053      15624.2
  905      722.428      15624.2
  906      722.802      15624.2
  907      723.176      15624.2
  908       723.55      15624.2
  909      723.924      15624.2
  910      724.298      15624.2
  911      724.671      15624.2
  912      725.045      15624.2
  913      725.418      15624.2
  914      725.792      15624.2
  915      726.165      15624.2
  916      726.538      15624.2
  917      726.911      15624.2
  918      727.284      15624.2
  919      727.657      15624.2
  920      728.029      15624.2
  921      728.402        15624
  922      728.774      15619.2
  923      729.147      15604.6
  924      729.519      15578.8
  925      729.891      15543.9
  926      730.263      15500.2
  927      730.635      15449.5
  928      731.007      15392.3
  929      731.378      15331.3
  930       731.75      15268.7
  931      732.121      15201.6
  932      732.493      15131.4
  933      732.864      15063.8
  934      733.235      15003.2
  935      733.606      14951.9
  936      733.977      14908.7
  937      734.348      14871.6
  938      734.718      14837.6
  939      735.089      14808.3
  940      735.459      14781.6
  941       735.83      14753.4
  942        736.2      14727.2
  943       736.57      14702.5
  944       736.94      14678.6
  945       737.31      14656.2
  946      737.679      14634.9
  947      738.049      14615.8
  948      738.419      14604.9
  949      738.788      14604.5
  950      739.157      14607.2
  951      739.527      14611.8
  952      739.896      14619.6
  953      740.265      14627.2
  954      740.634      14636.4
  955      741.002      14648.5
  956      741.371      14663.9
  957      741.739      14682.5
  958      742.108      14701.5
  959      742.476      14715.7
  960      742.844      14723.8
  961      743.212      14732.6
  962       743.58      14741.5
  963      743.948      14747.8
  964      744.316      14752.9
  965      744.684      14755.6
  966      745.051      14754.5
  967      745.418      14748.4
  968      745.786      14735.1
  969      746.153      14713.9
  970       746.52      14687.9
  971      746.887      14656.9
  972      747.254      14616.8
  973       747.62      14569.3
  974      747.987      14519.4
  975      748.354      14467.2
  976       748.72      14410.6
  977      749.086      14352.5
  978      749.452      14293.6
  979      749.818      14231.6
  980      750.184        14170
  981       750.55      14106.6
  982      750.916      14041.2
  983      751.281      13977.8
  984      751.647      13914.4
  985      752.012      13850.3
  986      752.377      13784.9
  987      752.743      13716.7
  988      753.108      13644.6
  989      753.473      13570.7
  990      753.837        13496
  991      754.202        13421
  992      754.567      13349.1
  993      754.931      13277.9
  994      755.295      13202.2
  995       755.66      13122.1
  996      756.024      13039.7
  997      756.388      12958.3
  998      756.752        12879
  999      757.115      12797.9
 1000      757.479      12716.2
 1001      757.843      12638.2
 1002      758.206      12560.1
 1003      758.569      12478.3
 1004      758.932      12394.6
 1005      759.296      12312.3
 1006      759.659      12236.5
 1007      760.021      12165.3
 1008      760.384      12091.1
 1009      760.747      12013.4
 1010      761.109      11933.9
 1011      761.472      11850.2
 1012      761.834      11762.2
 1013      762.196      11674.9
 1014      762.558      11585.5
 1015       762.92        11493
 1016      763.282      11404.1
 1017      763.644      11316.8
 1018      764.005      11231.1
 1019      764.367      11151.8
 1020      764.728      11079.6
 1021      765.089      11014.9
 1022      765.451      10955.3
 1023      765.812      10899.5
 1024      766.172      10843.9
 1025      766.533      10790.5
 1026      766.894      10742.3
 1027      767.255      10692.2
 1028      767.615      10636.6
 1029      767.975      10576.6
 1030      768.336      10514.5
 1031      768.696      10451.4
 1032      769.056      10386.2
 1033      769.416      10319.1
 1034      769.775        10250
 1035      770.135      10179.8
 1036      770.494      10110.9
 1037      770.854      10041.1
 1038      771.213      9971.16
 1039      771.572      9902.44
 1040      771.931      9829.84
 1041       772.29      9747.46
 1042      772.649      9656.87
 1043      773.008      9562.19
 1044      773.367      9467.26
 1045      773.725      9376.22
 1046      774.083      9291.25
 1047      774.442      9210.56
 1048        774.8      9135.63
 1049      775.158      9067.81
 1050      775.516      9004.26
 1051      775.874       8950.5
 1052      776.231       8910.8
 1053      776.589       8878.3
 1054      776.946      8846.86
 1055      777.304      8817.52
 1056      777.661      8789.74
 1057      778.018      8757.11
 1058      778.375      8722.75
 1059      778.732      8687.67
 1060      779.089      8646.16
 1061      779.445      8600.26
 1062      779.802      8550.92
 1063      780.158      8498.07
 1064      780.515      8447.51
 1065      780.871      8403.78
 1066      781.227      8362.19
 1067      781.583      8317.15
 1068      781.939      8270.49
 1069      782.294      8220.58
 1070       782.65      8167.65
 1071      783.006      8116.05
 1072      783.361      8067.25
 1073      783.716      8020.93
 1074      784.071      7975.75
 1075      784.426       7930.3
 1076      784.781      7882.75
 1077      785.136      7833.42
 1078      785.491      7783.35
 1079      785.845      7736.28
 1080        786.2      7693.08
 1081      786.554       7651.8
 1082      786.908      7609.56
 1083      787.262      7565.54
 1084      787.616      7516.71
 1085       787.97      7466.48
 1086      788.324      7417.32
 1087      788.678      7367.74
 1088      789.031      7321.89
 1089      789.385      7279.25
 1090      789.738      7236.55
 1091      790.091         7192
 1092      790.444      7143.96
 1093      790.797      7097.93
 1094       791.15      7055.76
 1095      791.503      7018.78
 1096      791.855      6984.57
 1097      792.208      6950.22
 1098       792.56      6915.54
 1099      792.912      6877.71
 1100      793.264      6839.07
 1101      793.616      6801.23
 1102      793.968      6763.45
 1103       794.32      6725.71
 1104      794.672      6687.25
 1105      795.023      6649.59
 1106      795.375      6609.94
 1107      795.726      6567.12
 1108      796.077      6525.85
 1109      796.428      6485.61
 1110      796.779      6445.72
 1111       797.13      6405.69
 1112      797.481      6363.17
 1113      797.831      6320.53
 1114      798.182      6281.26
 1115      798.532      6245.92
 1116      798.882      6212.06
 1117      799.232      6177.24
 1118      799.582      6141.83
 1119      799.932      6106.95
 1120      800.282      6074.37
 1121      800.632      6040.96
 1122      800.981      6005.84
 1123      801.331      5971.88
 1124       801.68       5939.6
 1125      802.029      5908.84
 1126      802.378         5876
 1127      802.727      5840.75
 1128      803.076      5808.22
 1129      803.425      5779.36
 1130      803.773      5748.14
 1131      804.122      5713.12
 1132       804.47      5678.87
 1133      804.818      5649.41
 1134      805.167      5622.43
 1135      805.515      5593.51
 1136      805.862      5563.81
 1137       806.21      5534.25
 1138      806.558      5503.51
 1139      806.905      5471.37
 1140      807.253       5439.1
 1141        807.6      5409.25
 1142      807.947      5381.72
 1143      808.294      5354.61
 1144      808.641       5326.6
 1145      808.988      5297.08
 1146      809.335      5266.62
 1147      809.682      5234.59
 1148      810.028      5201.75
 1149      810.374      5171.84
 1150      810.721       5142.8
 1151      811.067      5111.66
 1152      811.413      5079.17
 1153      811.759      5045.52
 1154      812.104      5012.77
 1155       812.45         4980
 1156      812.796      4950.15
 1157      813.141      4925.49
 1158      813.486         4902
 1159      813.831       4879.5
 1160      814.176      4855.82
 1161      814.521      4832.04
 1162      814.866      4810.31
 1163      815.211      4790.39
 1164      815.555      4772.47
 1165        815.9      4753.06
 1166      816.244      4731.66
 1167      816.589      4709.94
 1168      816.933      4686.96
 1169      817.277      4663.88
 1170       817.62      4640.36
 1171      817.964      4614.78
 1172      818.308      4588.73
 1173      818.651      4562.84
 1174      818.995      4535.91
 1175      819.338      4508.11
 1176      819.681      4483.36
 1177      820.024      4461.58
 1178      820.367       4439.7
 1179       820.71      4417.76
 1180      821.053       4395.4
 1181      821.395      4374.28
 1182      821.738      4355.85
 1183       822.08      4339.08
 1184      822.422      4323.32
 1185      822.764      4306.07
 1186      823.106      4287.62
 1187      823.448       4267.7
 1188       823.79      4245.79
 1189      824.131      4222.66
 1190      824.473      4199.17
 1191      824.814      4176.82
 1192      825.155      4158.15
 1193      825.496      4139.98
 1194      825.837      4118.56
 1195      826.178      4096.07
 1196      826.519      4073.99
 1197       826.86      4051.88
 1198        827.2      4028.95
 1199      827.541      4007.27
 1200      827.881       3985.7
 1201      828.221      3964.65
 1202      828.561      3946.55
 1203      828.901      3924.51
 1204      829.241      3899.61
 1205      829.581      3877.72
 1206       829.92      3855.82
 1207       830.26      3835.39
 1208      830.599      3818.36
 1209      830.938       3803.7
 1210      831.277      3789.93
 1211      831.616      3776.99
 1212      831.955      3762.07
 1213      832.294       3742.4
 1214      832.632      3723.51
 1215      832.971      3707.23
 1216      833.309       3689.4
 1217      833.647      3672.34
 1218      833.986      3655.99
 1219      834.324      3639.35
 1220      834.661      3623.32
 1221      834.999      3606.24
 1222      835.337      3589.65
 1223      835.674      3577.78
 1224      836.012      3569.73
 1225      836.349      3560.96
 1226      836.686      3550.36
 1227      837.023      3539.76
 1228       837.36      3529.84
 1229      837.697      3521.53
 1230      838.034      3512.65
 1231       838.37      3500.66
 1232      838.707      3490.26
 1233      839.043      3480.19
 1234      839.379      3465.94
 1235      839.715      3451.63
 1236      840.051      3439.99
 1237      840.387      3430.46
 1238      840.723      3422.72
 1239      841.058      3414.41
 1240      841.394      3402.57
 1241      841.729      3390.95
 1242      842.064      3384.61
 1243      842.399       3377.5
 1244      842.734      3367.58
 1245      843.069      3358.42
 1246      843.404      3349.66
 1247      843.739      3339.22
 1248      844.073      3324.41
 1249      844.408      3309.27
 1250      844.742      3294.68
 1251      845.076      3281.05
 1252       845.41      3268.27
 1253      845.744      3253.03
 1254      846.078      3237.75
 1255      846.411      3224.16
 1256      846.745      3212.49
 1257      847.078      3199.36
 1258      847.411      3184.26
 1259      847.745      3170.92
 1260      848.078      3157.16
 1261      848.411       3144.4
 1262      848.743      3133.25
 1263      849.076       3121.5
 1264      849.409      3109.24
 1265      849.741      3097.25
 1266      850.073      3086.33
 1267      850.406      3074.34
 1268      850.738       3062.6
 1269       851.07      3053.45
 1270      851.401      3047.35
 1271      851.733      3042.47
 1272      852.065      3035.36
 1273      852.396      3027.71
 1274      852.727      3019.57
 1275      853.059       3010.8
 1276       853.39      3003.19
 1277      853.721      2994.02
 1278      854.052      2983.05
 1279      854.382       2972.9
 1280      854.713      2961.07
 1281      855.043      2946.56
 1282      855.374       2930.4
 1283      855.704      2915.09
 1284      856.034      2899.58
 1285      856.364       2883.5
 1286      856.694      2867.59
 1287      857.024      2852.63
 1288      857.353      2839.59
 1289      857.683      2826.85
 1290      858.012      2813.78
 1291      858.341       2802.6
 1292      858.671      2791.32
 1293          859      2780.14
 1294      859.329      2769.38
 1295      859.657      2756.75
 1296      859.986      2743.85
 1297      860.314      2729.97
 1298      860.643      2713.46
 1299      860.971       2695.8
 1300      861.299      2679.81
 1301      861.627       2663.7
 1302      861.955      2646.44
 1303      862.283      2632.15
 1304      862.611      2619.05
 1305      862.938      2604.05
 1306      863.266      2589.03
 1307      863.593      2576.68
 1308       863.92      2565.22
 1309      864.247      2550.63
 1310      864.574      2536.05
 1311      864.901      2520.71
 1312      865.228      2503.62
 1313      865.554      2487.76
 1314      865.881      2471.27
 1315      866.207      2453.61
 1316      866.533      2437.81
 1317      866.859       2423.9
 1318      867.185       2407.7
 1319      867.511       2389.9
 1320      867.837      2373.08
 1321      868.162      2356.25
 1322      868.488      2340.72
 1323      868.813      2324.75
 1324      869.138      2307.31
 1325      869.463      2289.34
 1326      869.788      2271.35
 1327      870.113      2253.85
 1328      870.438      2234.63
 1329      870.762      2213.29
 1330      871.087      2192.35
 1331      871.411      2173.05
 1332      871.735      2155.97
 1333      872.059      2138.81
 1334      872.383      2121.42
 1335      872.707      2102.92
 1336      873.031      2082.72
 1337      873.354      2062.45
 1338      873.678      2040.45
 1339      874.001      2019.83
 1340      874.324      2001.17
 1341      874.647      1983.35
 1342       874.97      1965.09
 1343      875.293      1944.45
 1344      875.616      1923.68
 1345      875.939      1902.95
 1346      876.261      1881.95
 1347      876.583         1863
 1348      876.906      1844.96
 1349      877.228      1826.65
 1350       877.55      1808.04
 1351      877.872      1789.85
 1352      878.193      1772.36
 1353      878.515      1755.81
 1354      878.836      1739.15
 1355      879.158      1721.13
 1356      879.479      1703.26
 1357        879.8      1684.62
 1358      880.121      1667.56
 1359      880.442      1652.34
 1360      880.763      1634.95
 1361      881.083      1614.89
 1362      881.404      1593.61
 1363      881.724      1572.58
 1364      882.044      1551.23
 1365      882.364      1529.67
 1366      882.684      1507.43
 1367      883.004      1485.55
 1368      883.324      1465.91
 1369      883.644      1446.18
 1370      883.963      1425.59
 1371      884.282      1406.58
 1372      884.602      1389.63
 1373      884.921      1373.34
 1374       885.24      1355.45
 1375      885.559      1336.09
 1376      885.877      1316.22
 1377      886.196      1298.11
 1378      886.514      1281.95
 1379      886.833      1265.89
 1380      887.151      1246.43
 1381      887.469      1224.85
 1382      887.787      1203.87
 1383      888.105      1182.76
 1384      888.423      1162.12
 1385       888.74      1143.64
 1386      889.058      1125.35
 1387      889.375      1106.29
 1388      889.692      1087.23
 1389       890.01      1067.49
 1390      890.327      1047.73
 1391      890.643      1028.69
 1392       890.96      1010.68
 1393      891.277      993.527
 1394      891.593      977.055
 1395       891.91      960.718
 1396      892.226      943.591
 1397      892.542      927.827
 1398      892.858      913.745
 1399      893.174      899.245
 1400      893.489      883.418
 1401      893.805      866.664
 1402       894.12      850.255
 1403      894.436      833.009
 1404      894.751      816.064
 1405      895.066      800.236
 1406      895.381      785.173
 1407      895.696      769.418
 1408      896.011        751.9
 1409      896.325      734.291
 1410       896.64        717.1
 1411      896.954      700.355
 1412      897.268      684.427
 1413      897.582      668.982
 1414      897.896      653.173
 1415       898.21      636.782
 1416      898.524      619.255
 1417      898.837      601.536
 1418      899.151      585.755
 1419      899.464      571.718
 1420      899.777      558.327
 1421      900.091      543.709
 1422      900.403      527.318
 1423      900.716      511.164
 1424      901.029      495.582
 1425      901.342      481.218
 1426      901.654        467.4
 1427      901.966      454.145
 1428      902.279      441.891
 1429      902.591      429.036
 1430      902.903      414.918
 1431      903.214        400.3
 1432      903.526      387.873
 1433      903.838      379.009
 1434      904.149      369.745
 1435       904.46      359.691
 1436      904.771      350.436
 1437      905.083      340.509
 1438      905.393      331.027
 1439      905.704      321.755
 1440      906.015      311.764
 1441      906.325      302.918
 1442      906.636      295.264
 1443      906.946      285.645
 1444      907.256      274.382
 1445      907.566        264.5
 1446      907.876      253.791
 1447      908.186      241.882
 1448      908.496      231.182
 1449      908.805      221.291
 1450      909.115      211.464
 1451      909.424      203.036
 1452      909.733      194.764
 1453      910.042      185.055
 1454      910.351      176.882
 1455       910.66      170.764
 1456      910.968      165.918
 1457      911.277      164.227
 1458      911.585      162.173
 1459      911.893      157.982
 1460      912.202      152.736
 1461       912.51      146.964
 1462      912.817      141.255
 1463      913.125      136.391
 1464      913.433        132.9
 1465       913.74      129.682
 1466      914.048      125.355
 1467      914.355      118.636
 1468      914.662      110.136
 1469      914.969      103.109
 1470      915.276      98.9545
 1471      915.583      94.9545
 1472      915.889      90.2636
 1473      916.196      87.7455
 1474      916.502      86.3455
 1475      916.808      83.3636
 1476      917.114      78.6909
 1477       917.42      74.8818
 1478      917.726      72.5818
 1479      918.032      69.9364
 1480      918.337      67.7727
 1481      918.643      64.6182
 1482      918.948      60.6545
 1483      919.253         57.1
 1484      919.558      52.0545
 1485      919.863      47.2091
 1486      920.168      44.4818
 1487      920.473      42.5364
 1488      920.777      39.6545
 1489      921.082      36.2909
 1490      921.386      33.4545
 1491       921.69           30
 1492      921.994      26.2727
 1493      922.298      25.1727
 1494      922.602      25.0636
 1495      922.905      24.0455
 1496      923.209         22.4
 1497      923.512      19.3273
 1498      923.816      17.4182
 1499      924.119      16.1818
 1500      924.422      14.6455
 1501      924.724      13.6182
 1502      925.027         12.6
 1503       925.33         12.6
 1504      925.632      12.7818
 1505      925.935      14.1545
 1506      926.237      16.2364
 1507      926.539      16.8273
 1508      926.841      16.8727
 1509      927.143         15.6
 1510      927.445      15.5545
 1511      927.746      17.9455
 1512      928.048      19.5727
 1513      928.349      20.8636
 1514       928.65      21.6455
 1515      928.951      21.2273
 1516      929.252      19.0727
 1517      929.553      15.4909
 1518      929.854      13.0273
 1519      930.154         11.9
 1520      930.454      11.8273
 1521      930.755      10.6545
 1522      931.055      8.06364
 1523      931.355      6.79091
 1524      931.655      6.75455
 1525      931.955      7.30909
 1526      932.254      7.86364
 1527      932.554      8.60909
 1528      932.853      9.86364
 1529      933.152      11.3273
 1530      933.452      13.2273
 1531      933.751      15.1636
 1532      934.049      16.6091
 1533      934.348      16.8636
 1534      934.647      16.1818
 1535      934.945      14.6636
 1536      935.244      11.7273
 1537      935.542          8.2
 1538       935.84      4.83636
 1539      936.138      3.64545
 1540      936.436      3.10909
 1541      936.733      1.56364
 1542      937.031    0.0636364
 1543      937.328     -1.16364
 1544      937.626    -0.890909
 1545      937.923     0.572727
 1546       938.22      1.61818
 1547      938.517      5.30909
 1548      938.814      10.3273
 1549       939.11      13.2455
 1550      939.407      13.8455
 1551      939.703      15.1455
 1552      939.999      18.1364
 1553      940.295      20.1455
 1554      940.591      21.1818
 1555      940.887      20.7545
 1556      941.183      18.6909
 1557      941.479      16.3273
 1558      941.774         12.6
 1559       942.07      8.39091
 1560      942.365      5.77273
 1561       942.66      4.71818
 1562      942.955      3.41818
 1563       943.25      1.55455
 1564      943.544     0.172727
 1565      943.839    -0.754545
 1566      944.133     -2.23636
 1567      944.428     -3.50909
 1568      944.722     -3.42727
 1569      945.016     -3.44545
 1570       945.31     -3.16364
 1571      945.604     -2.64545
 1572      945.897     -3.02727
 1573      946.191         -3.2
 1574      946.484     -2.93636
 1575      946.777     -1.74545
 1576       947.07          0.3
 1577      947.363      2.57273
 1578      947.656      4.91818
 1579      947.949          7.5
 1580      948.242      9.56364
 1581      948.534      10.6545
 1582      948.826      12.4636
 1583      949.119         14.2
 1584      949.411      13.2273
 1585      949.703      11.5545
 1586      949.995      8.68182
 1587      950.286      3.70909
 1588      950.578     0.754545
 1589      950.869          0.5
 1590       951.16    -0.245455
 1591      951.452     -1.75455
 1592      951.743     -3.30909
 1593      952.034     -4.21818
 1594      952.324     -4.68182
 1595      952.615     -3.32727
 1596      952.905     -1.60909
 1597      953.196     0.154545
 1598      953.486      3.09091
 1599      953.776      5.95455
 1600      954.066      6.34545
 1601      954.356      5.49091
 1602      954.646      7.17273
 1603      954.935      9.99091
 1604      955.225      10.2818
 1605      955.514      8.98182
 1606      955.803      6.05455
 1607      956.092      3.59091
 1608      956.381          3.3
 1609       956.67      3.85455
 1610      956.959      3.33636
 1611      957.247      3.02727
 1612      957.536          4.7
 1613      957.824      4.93636
 1614      958.112      4.55455
 1615        958.4      5.35455
 1616      958.688      6.31818
 1617      958.976      8.13636
 1618      959.263      10.5727
 1619      959.551      11.7273
 1620      959.838      9.86364
 1621      960.125      6.88182
 1622      960.412      3.69091
 1623      960.699   -0.0363636
 1624      960.986     -3.45455
 1625      961.273     -5.54545
 1626      961.559     -5.97273
 1627      961.846     -5.76364
 1628      962.132     -6.28182
 1629      962.418         -6.9
 1630      962.704         -7.3
 1631       962.99     -5.22727
 1632      963.276     -2.56364
 1633      963.561    -0.618182
 1634      963.847      1.23636
 1635      964.132      2.62727
 1636      964.417      2.30909
 1637      964.702     0.109091
 1638      964.987    -0.981818
 1639      965.272    -0.881818
 1640      965.557           -3
 1641      965.841     -4.71818
 1642      966.126     -4.57273
 1643       966.41     -2.55455
 1644      966.694     0.736364
 1645      966.978      2.84545
 1646      967.262      3.95455
 1647      967.546      4.81818
 1648      967.829          5.9
 1649      968.113      6.36364
 1650      968.396      7.23636
 1651      968.679      9.02727
 1652      968.963      9.72727
 1653      969.245      9.35455
 1654      969.528          7.6
 1655      969.811      4.31818
 1656      970.094      5.45455
 1657      970.376      9.54545
 1658      970.658      11.6545
 1659       970.94         14.9
 1660      971.222      18.5545
 1661      971.504      19.2636
 1662      971.786      18.1364
 1663      972.068      17.0909
 1664      972.349      15.6909
 1665       972.63      13.9364
 1666      972.912      13.5364
 1667      973.193      9.43636
 1668      973.474      2.92727
 1669      973.755     -1.66364
 1670      974.035     -7.90909
 1671      974.316     -14.6364
 1672      974.596     -18.7273
 1673      974.876     -20.5545
 1674      975.157     -20.4273
 1675      975.437     -19.9545
 1676      975.716     -20.2273
 1677      975.996     -21.4273
 1678      976.276     -22.9727
 1679      976.555     -22.9364
 1680      976.835     -21.1182
 1681      977.114     -17.9909
 1682      977.393     -14.1364
 1683      977.672     -10.5727
 1684      977.951     -8.22727
 1685      978.229     -8.67273
 1686      978.508     -9.50909
 1687      978.786     -8.51818
 1688      979.065     -5.87273
 1689      979.343     -2.97273
 1690      979.621     -1.97273
 1691      979.898     0.190909
 1692      980.176      1.93636
 1693      980.454      1.07273
 1694      980.731    0.0636364
 1695      981.009     0.218182
 1696      981.286      1.97273
 1697      981.563      3.19091
 1698       981.84      2.74545
 1699      982.117      1.76364
 1700      982.393      2.91818
 1701       982.67      5.64545
 1702      982.946          4.3
 1703      983.222          1.8
 1704      983.498     0.418182
 1705      983.774     -1.31818
 1706       984.05     -2.86364
 1707      984.326     -5.71818
 1708      984.602         -8.5
 1709      984.877     -9.30909
 1710      985.152     -10.1182
 1711      985.427     -12.7091
 1712      985.703     -13.8545
 1713      985.977     -12.3545
 1714      986.252        -11.1
 1715      986.527     -10.1545
 1716      986.801     -8.64545
 1717      987.076     -6.60909
 1718       987.35           -4
 1719      987.624     -1.50909
 1720      987.898    -0.563636
 1721      988.172    -0.827273
 1722      988.445          0.1
 1723      988.719           -1
 1724      988.992     -4.69091
 1725      989.266     -7.54545
 1726      989.539     -9.23636
 1727      989.812     -10.6455
 1728      990.085     -12.5909
 1729      990.357     -14.1636
 1730       990.63     -15.6455
 1731      990.902     -16.6182
 1732      991.175     -15.8273
 1733      991.447     -15.1364
 1734      991.719        -12.9
 1735      991.991     -8.26364
 1736      992.263     -5.52727
 1737      992.534     -3.88182
 1738      992.806         -3.4
 1739      993.077     -4.73636
 1740      993.348     -6.67273
 1741       993.62     -8.08182
 1742      993.891     -8.48182
 1743      994.161     -8.12727
 1744      994.432     -7.84545
 1745      994.703     -8.76364
 1746      994.973     -11.5273
 1747      995.243     -12.7091
 1748      995.513     -11.9091
 1749      995.784     -10.1909
 1750      996.053     -7.82727
 1751      996.323     -5.83636
 1752      996.593     -3.42727
 1753      996.862     -1.51818
 1754      997.132    -0.690909
 1755      997.401     0.190909
 1756       997.67    -0.145455
 1757      997.939    -0.118182
 1758      998.208    -0.236364
 1759      998.476     -1.89091
 1760      998.745     -2.96364
 1761      999.013     -3.17273
 1762      999.281     -1.75455
 1763      999.549          0.2
 1764      999.817     0.827273
 1765      1000.09    0.0818182
 1766      1000.35     -1.67273
 1767      1000.62           -3
 1768      1000.89     -3.21818
 1769      1001.16     -3.06364
 1770      1001.42     -3.38182
 1771      1001.69     -4.41818
 1772      1001.96     -5.16364
 1773      1002.22     -5.89091
 1774      1002.49     -8.17273
 1775      1002.76     -10.3091
 1776      1003.02     -12.3182
 1777      1003.29     -13.8273
 1778      1003.55     -14.4545
 1779      1003.82     -16.7182
 1780      1004.09     -18.9364
 1781      1004.35        -18.5
 1782      1004.62        -16.7
 1783      1004.88     -15.6727
 1784      1005.15     -15.7182
 1785      1005.41     -13.4909
 1786      1005.68     -10.3545
 1787      1005.94     -7.80909
 1788      1006.21     -5.86364
 1789      1006.47     -5.26364
 1790      1006.74     -4.26364
 1791         1007     -3.92727
 1792      1007.26     -4.73636
 1793      1007.53     -6.42727
 1794      1007.79     -8.35455
 1795      1008.06     -10.1182
 1796      1008.32     -13.2545
 1797      1008.58     -16.4091
 1798      1008.85     -16.9636
 1799      1009.11        -14.4
 1800      1009.37     -11.2636
 1801      1009.64         -8.8
 1802       1009.9     -4.82727
 1803      1010.16     0.227273
 1804      1010.42      4.58182
 1805      1010.69      8.33636
 1806      1010.95      11.6273
 1807      1011.21      14.4909
 1808      1011.47      17.4909
 1809      1011.73      17.2273
 1810         1012      14.0182
 1811      1012.26      12.5364
 1812      1012.52      12.0364
 1813      1012.78      11.1909
 1814      1013.04      10.2455
 1815       1013.3      9.77273
 1816      1013.56      9.77273
 1817      1013.82      9.24545
 1818      1014.08      7.57273
 1819      1014.34      5.69091
 1820       1014.6      6.08182
 1821      1014.86      5.77273
 1822      1015.12      3.21818
 1823      1015.38      1.13636
 1824      1015.64    -0.136364
 1825       1015.9     -2.89091
 1826      1016.16     -5.32727
 1827      1016.42     -6.96364
 1828      1016.68     -8.18182
 1829      1016.94     -7.07273
 1830       1017.2     -5.22727
 1831      1017.46           -4
 1832      1017.72     -3.30909
 1833      1017.98     -2.15455
 1834      1018.23     0.263636
 1835      1018.49      2.52727
 1836      1018.75      3.77273
 1837      1019.01      3.80909
 1838      1019.27          3.9
 1839      1019.52      4.88182
 1840      1019.78      4.85455
 1841      1020.04      2.90909
 1842       1020.3      1.08182
 1843      1020.55          1.7
 1844      1020.81      3.39091
 1845      1021.07      4.12727
 1846      1021.32      2.87273
 1847      1021.58      2.01818
 1848      1021.84      2.78182
 1849      1022.09      3.54545
 1850      1022.35      3.24545
 1851       1022.6      1.49091
 1852      1022.86   -0.0727273
 1853      1023.12    -0.645455
 1854      1023.37     -2.20909
 1855      1023.63     -3.53636
 1856      1023.88     -4.34545
 1857      1024.14     -5.30909
 1858      1024.39     -6.22727
 1859      1024.65     -7.76364
 1860       1024.9     -9.78182
 1861      1025.16     -11.6091
 1862      1025.41     -10.5273
 1863      1025.67     -6.23636
 1864      1025.92     -1.94545
 1865      1026.17      1.57273
 1866      1026.43      3.35455
 1867      1026.68      2.78182
 1868      1026.93      1.62727
 1869      1027.19      1.22727
 1870      1027.44      1.91818
 1871      1027.69      3.11818
 1872      1027.95      3.54545
 1873       1028.2      2.19091
 1874      1028.45         -1.5
 1875      1028.71     -6.85455
 1876      1028.96     -11.7364
 1877      1029.21     -14.6727
 1878      1029.46     -16.1455
 1879      1029.71     -17.2909
 1880      1029.97     -18.0545
 1881      1030.22     -18.4273
 1882      1030.47     -18.6727
 1883      1030.72     -18.2364
 1884      1030.97     -17.9182
 1885      1031.22     -17.3273
 1886      1031.48        -15.5
 1887      1031.73     -13.3364
 1888      1031.98     -12.3727
 1889      1032.23     -12.3455
 1890      1032.48     -12.1091
 1891      1032.73     -12.4091
 1892      1032.98     -14.3727
 1893      1033.23     -16.9636
 1894      1033.48     -18.8909
 1895      1033.73     -19.6364
 1896      1033.98     -19.1091
 1897      1034.23        -19.6
 1898      1034.48     -21.3545
 1899      1034.73     -21.9455
 1900      1034.98     -20.0364
 1901      1035.22     -16.4273
 1902      1035.47     -13.2545
 1903      1035.72     -10.2364
 1904      1035.97     -7.41818
 1905      1036.22     -6.46364
 1906      1036.47     -7.05455
 1907      1036.72     -6.70909
 1908      1036.96     -4.84545
 1909      1037.21     -2.20909
 1910      1037.46     0.127273
 1911      1037.71     0.227273
 1912      1037.95     -1.44545
 1913       1038.2         -2.5
 1914      1038.45     -3.59091
 1915       1038.7     -5.12727
 1916      1038.94     -5.46364
 1917      1039.19     -4.76364
 1918      1039.44     -4.06364
 1919      1039.68     -3.43636
 1920      1039.93     -4.10909
 1921      1040.17     -5.71818
 1922      1040.42     -6.88182
 1923      1040.67     -7.72727
 1924      1040.91     -8.35455
 1925      1041.16     -7.51818
 1926       1041.4     -5.04545
 1927      1041.65     -2.61818
 1928      1041.89     -2.44545
 1929      1042.14     -4.58182
 1930      1042.38     -7.05455
 1931      1042.63     -8.14545
 1932      1042.87     -8.22727
 1933      1043.12     -7.93636
 1934      1043.36     -6.93636
 1935      1043.61     -4.74545
 1936      1043.85     -2.48182
 1937      1044.09     -1.36364
 1938      1044.34    -0.181818
 1939      1044.58      2.43636
 1940      1044.82      3.49091
 1941      1045.07      2.32727
 1942      1045.31      2.04545
 1943      1045.55          1.8
 1944       1045.8      1.62727
 1945      1046.04      1.58182
 1946      1046.28    -0.409091
 1947      1046.53     -3.45455
 1948      1046.77     -4.63636
 1949      1047.01     -3.17273
 1950      1047.25     -1.27273
 1951      1047.49      2.86364
 1952      1047.74      9.26364
 1953      1047.98      15.3727
 1954      1048.22      20.5273
 1955      1048.46      23.6091
 1956       1048.7      26.2727
 1957      1048.94      29.7545
 1958      1049.18         32.3
 1959      1049.42      31.7727
 1960      1049.66      29.3636
 1961       1049.9      27.2636
 1962      1050.15      23.8455
 1963      1050.39      19.3545
 1964      1050.63      14.3455
 1965      1050.87         10.3
 1966      1051.11      8.26364
 1967      1051.34      5.59091
 1968      1051.58      3.01818
 1969      1051.82      3.77273
 1970      1052.06      6.31818
 1971       1052.3      6.59091
 1972      1052.54      4.98182
 1973      1052.78      2.31818
 1974      1053.02    -0.436364
 1975      1053.26     -2.87273
 1976      1053.49     -6.14545
 1977      1053.73     -8.71818
 1978      1053.97     -9.22727
 1979      1054.21     -11.8273
 1980      1054.45     -17.6455
 1981      1054.68     -21.6273
 1982      1054.92     -22.8091
 1983      1055.16     -22.6364
 1984       1055.4     -19.9273
 1985      1055.63     -16.1455
 1986      1055.87     -13.3455
 1987      1056.11     -11.9273
 1988      1056.34     -11.5364
 1989      1056.58     -10.9273
 1990      1056.82     -9.05455
 1991      1057.05     -7.81818
 1992      1057.29     -9.14545
 1993      1057.52        -10.9
 1994      1057.76     -11.9545
 1995         1058     -12.9545
 1996      1058.23     -14.5364
 1997      1058.47     -16.5545
 1998       1058.7     -17.7273
 1999      1058.94     -18.5364
 2000      1059.17     -15.0545
 2001      1059.41         -8.2
 2002      1059.64     -2.35455
 2003      1059.88      4.41818
 2004      1060.11      10.9545
 2005      1060.34      15.3909
 2006      1060.58      16.3273
 2007      1060.81      16.8182
 2008      1061.05      18.1545
 2009      1061.28      19.6727
 2010      1061.51      20.9455
 2011      1061.75         17.7
 2012      1061.98      12.3182
 2013      1062.21      8.38182
 2014      1062.45      3.48182
 2015      1062.68     -1.87273
 2016      1062.91     -5.45455
 2017      1063.14     -6.22727
 2018      1063.38     -5.44545
 2019      1063.61     -3.40909
 2020      1063.84    -0.963636
 2021      1064.07          1.6
 2022       1064.3      3.01818
 2023      1064.53      4.70909
 2024      1064.77      7.80909
 2025         1065      9.50909
 2026      1065.23      10.1455
 2027      1065.46      9.70909
 2028      1065.69      8.22727
 2029      1065.92      5.18182
 2030      1066.15      2.06364
 2031      1066.38    -0.363636
 2032      1066.61     -3.22727
 2033      1066.84     -4.48182
 2034      1067.07     -5.88182
 2035       1067.3     -8.53636
 2036      1067.53     -9.22727
 2037      1067.76     -6.67273
 2038      1067.99     -1.62727
 2039      1068.22      3.65455
 2040      1068.45      8.88182
 2041      1068.68      12.8273
 2042      1068.91      15.6364
 2043      1069.14        18.78
 2044      1069.36         21.2
 2045      1069.59      22.8375
 2046      1069.82      25.8286
 2047      1070.05         29.5
