Kmac Spectrometer Data File
--- Measurement Setting ---
Type: Dark Spectrum
Date: Tue Dec 04 16:58:46 2018
User: (Reserved by KMAC)
Serial: (Reserved by KMAC)
Channel: No. 1
Integration Time: 100
Average: 10
Boxcar: 5
Electrical Dark: (Reserved by KMAC)
Time Normalize: (Reserved by KMAC)
Dual-beam: (Reserved by KMAC)
Reference Ch: (Reserved by KMAC)
--- Measurement Data ---
    0        341.9     -7.13333
    1      342.363     -2.78571
    2      342.825      -1.8125
    3      343.287     -1.22222
    4       343.75         -0.1
    5      344.212      1.66364
    6      344.674      4.62727
    7      345.136      6.98182
    8      345.598      10.8182
    9       346.06      14.9818
   10      346.522      15.8182
   11      346.984      14.1091
   12      347.445      13.1091
   13      347.907      13.2182
   14      348.368      14.4091
   15       348.83      15.2545
   16      349.291      13.9091
   17      349.752      11.5182
   18      350.213      8.65455
   19      350.674      7.45455
   20      351.135      10.0455
   21      351.596      15.6364
   22      352.057      19.9091
   23      352.517      21.5091
   24      352.978      22.6727
   25      353.439      21.3455
   26      353.899         18.8
   27      354.359      18.6727
   28       354.82      20.0091
   29       355.28      21.4273
   30       355.74      21.3273
   31        356.2      18.1091
   32       356.66      12.6636
   33       357.12      8.17273
   34       357.58      5.13636
   35      358.039      2.55455
   36      358.499          1.6
   37      358.958      2.25455
   38      359.418      1.36364
   39      359.877     -1.19091
   40      360.336     -3.81818
   41      360.796     -6.90909
   42      361.255     -5.67273
   43      361.714     -1.07273
   44      362.173      1.33636
   45      362.631      2.16364
   46       363.09      2.01818
   47      363.549     0.736364
   48      364.007     0.181818
   49      364.466     0.754545
   50      364.924      1.27273
   51      365.383      2.40909
   52      365.841      4.74545
   53      366.299      2.41818
   54      366.757     -2.88182
   55      367.215     -4.48182
   56      367.673     -5.34545
   57      368.131     -5.72727
   58      368.588     -5.49091
   59      369.046     -6.24545
   60      369.504     -7.37273
   61      369.961     -6.87273
   62      370.418     -5.85455
   63      370.876     -7.69091
   64      371.333     -8.62727
   65       371.79     -7.69091
   66      372.247     -9.39091
   67      372.704     -10.7273
   68      373.161     -10.6182
   69      373.618     -9.89091
   70      374.074         -8.9
   71      374.531         -8.4
   72      374.987     -9.83636
   73      375.444     -12.4909
   74        375.9     -13.1636
   75      376.356     -10.7545
   76      376.812     -7.03636
   77      377.269     -4.11818
   78      377.725     -3.36364
   79       378.18     -3.92727
   80      378.636     -4.03636
   81      379.092     -4.18182
   82      379.548     -4.14545
   83      380.003     -2.79091
   84      380.459    -0.145455
   85      380.914      2.74545
   86      381.369      3.40909
   87      381.825      2.33636
   88       382.28      1.95455
   89      382.735      5.06364
   90       383.19      11.2455
   91      383.645      15.4273
   92      384.099      17.4545
   93      384.554      18.8364
   94      385.009      19.8909
   95      385.463      19.5636
   96      385.918      16.7455
   97      386.372      14.0818
   98      386.826      11.3091
   99       387.28      10.9182
  100      387.734         11.4
  101      388.188      9.71818
  102      388.642      7.69091
  103      389.096      5.47273
  104       389.55      4.74545
  105      390.004      3.87273
  106      390.457      3.88182
  107      390.911      6.34545
  108      391.364      6.50909
  109      391.817      5.51818
  110       392.27      4.62727
  111      392.724      2.37273
  112      393.177    -0.818182
  113       393.63         -3.2
  114      394.082     -4.85455
  115      394.535         -7.9
  116      394.988     -10.9273
  117       395.44     -11.1909
  118      395.893     -8.36364
  119      396.345     -5.11818
  120      396.798          0.1
  121       397.25      4.86364
  122      397.702      6.51818
  123      398.154      7.78182
  124      398.606      9.55455
  125      399.058      11.8273
  126       399.51      15.2818
  127      399.962      18.5091
  128      400.413      18.0364
  129      400.865      14.2455
  130      401.316      11.1182
  131      401.768      7.32727
  132      402.219      2.86364
  133       402.67   -0.0636364
  134      403.121     -1.97273
  135      403.572         -3.3
  136      404.023     -5.07273
  137      404.474     -8.44545
  138      404.925     -10.9727
  139      405.375     -11.7455
  140      405.826        -11.5
  141      406.276     -11.5273
  142      406.727     -13.5182
  143      407.177     -15.0727
  144      407.627     -14.5182
  145      408.078     -14.3273
  146      408.528     -15.6455
  147      408.978     -15.2909
  148      409.427     -10.8818
  149      409.877     -6.20909
  150      410.327     -3.14545
  151      410.777      1.37273
  152      411.226          6.1
  153      411.675      11.2545
  154      412.125      15.6091
  155      412.574           16
  156      413.023      16.9273
  157      413.472      22.3455
  158      413.921      27.1455
  159       414.37      25.9364
  160      414.819      23.4818
  161      415.268         21.5
  162      415.716      18.0455
  163      416.165      15.5727
  164      416.613      14.0818
  165      417.062      12.1818
  166       417.51      10.7273
  167      417.958      9.06364
  168      418.406      5.29091
  169      418.854      2.46364
  170      419.302      4.30909
  171       419.75      6.48182
  172      420.198      8.25455
  173      420.645          8.2
  174      421.093      5.33636
  175       421.54      1.17273
  176      421.988         -2.4
  177      422.435     -2.32727
  178      422.882    -0.118182
  179      423.329          2.9
  180      423.776          4.7
  181      424.223      4.44545
  182       424.67      4.42727
  183      425.117      5.46364
  184      425.564      7.27273
  185       426.01      9.53636
  186      426.457         10.6
  187      426.903      11.4455
  188      427.349      12.1545
  189      427.795         12.2
  190      428.242      10.5909
  191      428.688      8.16364
  192      429.134          6.3
  193      429.579            4
  194      430.025    0.0818182
  195      430.471     -3.27273
  196      430.916     -5.49091
  197      431.362     -3.56364
  198      431.807     0.545455
  199      432.253      1.98182
  200      432.698      1.90909
  201      433.143      1.21818
  202      433.588     0.963636
  203      434.033     0.827273
  204      434.478     0.290909
  205      434.923          1.3
  206      435.367      4.05455
  207      435.812          7.3
  208      436.256      8.19091
  209      436.701          6.1
  210      437.145      4.37273
  211      437.589      1.85455
  212      438.034    -0.145455
  213      438.478     -1.37273
  214      438.922     -3.20909
  215      439.365         -4.4
  216      439.809     -6.80909
  217      440.253        -10.2
  218      440.697     -12.1182
  219       441.14     -13.1909
  220      441.583     -13.8909
  221      442.027     -14.0545
  222       442.47        -13.2
  223      442.913     -12.4364
  224      443.356        -11.3
  225      443.799     -9.73636
  226      444.242     -8.39091
  227      444.685     -5.71818
  228      445.128     -4.66364
  229       445.57     -4.39091
  230      446.013     -2.79091
  231      446.455     -1.43636
  232      446.897     0.272727
  233       447.34      2.04545
  234      447.782      4.76364
  235      448.224      7.75455
  236      448.666      10.3364
  237      449.108      11.5182
  238      449.549      12.3364
  239      449.991      14.4545
  240      450.433         13.7
  241      450.874      9.52727
  242      451.316      6.55455
  243      451.757      4.51818
  244      452.198      3.32727
  245      452.639      2.94545
  246       453.08     0.918182
  247      453.521    -0.472727
  248      453.962     0.472727
  249      454.403    -0.481818
  250      454.844         -3.3
  251      455.284         -3.8
  252      455.725     -1.02727
  253      456.165      2.06364
  254      456.606      4.85455
  255      457.046      7.09091
  256      457.486      7.04545
  257      457.926          7.1
  258      458.366      6.15455
  259      458.806      5.88182
  260      459.246      8.60909
  261      459.685      14.0273
  262      460.125      18.5182
  263      460.564      20.6091
  264      461.004      22.1909
  265      461.443      21.4455
  266      461.882      18.9636
  267      462.321      18.2818
  268       462.76      20.7545
  269      463.199      23.7364
  270      463.638      24.9273
  271      464.077      24.4273
  272      464.516      21.9182
  273      464.954      21.1364
  274      465.393      23.1364
  275      465.831      24.2636
  276      466.269      24.6182
  277      466.708      25.5455
  278      467.146      25.4909
  279      467.584      24.5182
  280      468.022      24.5182
  281      468.459      23.0091
  282      468.897         20.2
  283      469.335      19.5364
  284      469.772      17.8545
  285       470.21         13.3
  286      470.647      11.3455
  287      471.084      12.3727
  288      471.522      13.1818
  289      471.959      13.1909
  290      472.396      10.9455
  291      472.833      7.08182
  292      473.269      7.72727
  293      473.706      13.0455
  294      474.143      15.9636
  295      474.579      17.2545
  296      475.016      18.2455
  297      475.452      16.8545
  298      475.888      16.1091
  299      476.325      16.9273
  300      476.761      17.6545
  301      477.197         18.8
  302      477.633      22.4273
  303      478.068      24.5182
  304      478.504      21.9909
  305       478.94      17.9636
  306      479.375      14.5455
  307      479.811      12.8455
  308      480.246      13.0182
  309      480.681      12.4273
  310      481.116         11.7
  311      481.551      13.0182
  312      481.986         15.1
  313      482.421      14.4455
  314      482.856      11.0909
  315      483.291      9.56364
  316      483.725           10
  317       484.16      10.1727
  318      484.594      10.1455
  319      485.028      10.3636
  320      485.462      10.8636
  321      485.897      9.90909
  322      486.331      6.94545
  323      486.765      5.52727
  324      487.198      5.05455
  325      487.632      4.16364
  326      488.066      4.93636
  327      488.499      6.10909
  328      488.933          5.9
  329      489.366      4.56364
  330      489.799      1.99091
  331      490.233    -0.663636
  332      490.666     -2.82727
  333      491.099     -4.26364
  334      491.532     -6.53636
  335      491.964     -8.16364
  336      492.397     -5.90909
  337       492.83     -3.99091
  338      493.262     -4.11818
  339      493.695     -4.29091
  340      494.127     -4.02727
  341      494.559     -3.28182
  342      494.991     -3.01818
  343      495.423    -0.772727
  344      495.855     0.972727
  345      496.287    -0.309091
  346      496.719    -0.763636
  347      497.151     -2.43636
  348      497.582     -6.21818
  349      498.014     -8.22727
  350      498.445     -7.44545
  351      498.876     -5.72727
  352      499.307     -5.03636
  353      499.739     -5.27273
  354       500.17     -7.98182
  355        500.6     -8.43636
  356      501.031     -4.92727
  357      501.462     -3.14545
  358      501.893         -1.3
  359      502.323      1.04545
  360      502.754      2.53636
  361      503.184      3.88182
  362      503.614      4.21818
  363      504.044      3.25455
  364      504.474      3.39091
  365      504.904      7.03636
  366      505.334      8.94545
  367      505.764      7.31818
  368      506.194      6.15455
  369      506.623      4.29091
  370      507.053      2.18182
  371      507.482      3.10909
  372      507.911          5.5
  373      508.341      7.03636
  374       508.77      8.98182
  375      509.199      10.3364
  376      509.628      9.89091
  377      510.056      9.86364
  378      510.485      10.5727
  379      510.914      11.1182
  380      511.342         11.4
  381      511.771      11.8182
  382      512.199      9.81818
  383      512.627      6.39091
  384      513.055      5.10909
  385      513.484      3.91818
  386      513.912          2.6
  387      514.339      1.06364
  388      514.767     -1.07273
  389      515.195     -1.38182
  390      515.622     -1.00909
  391       516.05     -1.88182
  392      516.477     -2.86364
  393      516.905     -2.81818
  394      517.332     -2.87273
  395      517.759     -4.31818
  396      518.186         -5.2
  397      518.613     -3.19091
  398       519.04    -0.590909
  399      519.466    -0.190909
  400      519.893     -2.98182
  401      520.319     -7.02727
  402      520.746     -8.32727
  403      521.172         -8.4
  404      521.598     -10.5909
  405      522.025     -12.3545
  406      522.451     -13.3182
  407      522.877     -14.6818
  408      523.302     -17.3545
  409      523.728     -20.2091
  410      524.154     -20.5818
  411      524.579     -19.0727
  412      525.005     -16.8364
  413       525.43        -15.4
  414      525.855     -14.2182
  415      526.281     -11.5182
  416      526.706     -10.3364
  417      527.131         -9.7
  418      527.556     -7.95455
  419       527.98     -6.83636
  420      528.405     -6.82727
  421       528.83     -7.68182
  422      529.254     -6.93636
  423      529.679     -2.52727
  424      530.103      3.14545
  425      530.527          6.5
  426      530.951      7.56364
  427      531.375      7.99091
  428      531.799      8.37273
  429      532.223      8.87273
  430      532.647      9.85455
  431       533.07      11.5091
  432      533.494      14.0636
  433      533.917         15.2
  434      534.341      12.4636
  435      534.764      8.67273
  436      535.187      7.62727
  437       535.61      8.40909
  438      536.033      10.4727
  439      536.456         12.8
  440      536.879      14.4182
  441      537.301      14.8455
  442      537.724      15.5455
  443      538.146         15.6
  444      538.569      14.7364
  445      538.991      14.6182
  446      539.413      13.1727
  447      539.835      10.0909
  448      540.257      7.76364
  449      540.679      4.80909
  450      541.101     0.954545
  451      541.522     -2.12727
  452      541.944     -3.15455
  453      542.366     -3.59091
  454      542.787         -3.6
  455      543.208     -2.99091
  456      543.629     -4.06364
  457      544.051     -4.83636
  458      544.472     -2.04545
  459      544.892      1.35455
  460      545.313          2.8
  461      545.734      5.28182
  462      546.155      8.29091
  463      546.575      9.07273
  464      546.995      8.81818
  465      547.416      9.80909
  466      547.836      10.7364
  467      548.256      10.8182
  468      548.676      10.5182
  469      549.096      8.68182
  470      549.516      6.12727
  471      549.936      4.45455
  472      550.355      3.29091
  473      550.775      2.23636
  474      551.194      2.52727
  475      551.614      3.96364
  476      552.033      3.44545
  477      552.452      2.41818
  478      552.871      3.51818
  479       553.29      5.40909
  480      553.709      4.53636
  481      554.127      2.71818
  482      554.546      3.41818
  483      554.965      4.18182
  484      555.383      4.73636
  485      555.801      5.97273
  486       556.22      6.69091
  487      556.638          7.5
  488      557.056      8.80909
  489      557.474      9.21818
  490      557.892      8.74545
  491      558.309      10.1636
  492      558.727      12.5636
  493      559.145         13.9
  494      559.562      13.5091
  495       559.98      12.9727
  496      560.397      12.3636
  497      560.814      11.4364
  498      561.231      11.6091
  499      561.648      10.1364
  500      562.065          6.7
  501      562.482      3.16364
  502      562.898    -0.209091
  503      563.315     -3.06364
  504      563.731     -5.85455
  505      564.148     -7.29091
  506      564.564     -8.42727
  507       564.98        -11.1
  508      565.396     -14.0455
  509      565.812     -16.9636
  510      566.228     -17.9455
  511      566.644     -16.6818
  512       567.06     -13.4818
  513      567.475     -9.27273
  514      567.891     -6.83636
  515      568.306     -4.64545
  516      568.721     -1.80909
  517      569.136    0.0909091
  518      569.552      1.81818
  519      569.967      3.76364
  520      570.381      5.25455
  521      570.796      8.22727
  522      571.211      12.4818
  523      571.625      13.7364
  524       572.04      12.3091
  525      572.454      12.1455
  526      572.869      12.4545
  527      573.283      10.1909
  528      573.697      7.93636
  529      574.111      7.94545
  530      574.525      8.86364
  531      574.939      10.0909
  532      575.352      8.72727
  533      575.766      7.57273
  534      576.179      10.7909
  535      576.593      12.8636
  536      577.006      13.8455
  537      577.419      16.8364
  538      577.832      21.2818
  539      578.245      23.6091
  540      578.658      22.9455
  541      579.071      20.3273
  542      579.484         16.2
  543      579.896      13.8727
  544      580.309      11.8273
  545      580.721          7.2
  546      581.133      3.95455
  547      581.546      1.74545
  548      581.958     -2.76364
  549       582.37     -7.16364
  550      582.781     -9.97273
  551      583.193     -12.3818
  552      583.605     -13.5909
  553      584.017     -13.6455
  554      584.428     -13.2545
  555      584.839        -12.8
  556      585.251     -10.5636
  557      585.662     -7.12727
  558      586.073     -5.34545
  559      586.484     -2.98182
  560      586.895     -1.01818
  561      587.306          0.4
  562      587.716      2.09091
  563      588.127      2.75455
  564      588.537      3.23636
  565      588.948      4.08182
  566      589.358      4.27273
  567      589.768      2.33636
  568      590.178     0.263636
  569      590.588    -0.581818
  570      590.998     -1.68182
  571      591.408     -2.83636
  572      591.817     -2.74545
  573      592.227         -1.3
  574      592.636          0.9
  575      593.046      2.72727
  576      593.455      2.43636
  577      593.864      1.21818
  578      594.273          0.1
  579      594.682   -0.0818182
  580      595.091      1.31818
  581        595.5      2.72727
  582      595.908      4.03636
  583      596.317      6.36364
  584      596.725      9.55455
  585      597.134         10.2
  586      597.542      10.0727
  587       597.95         12.3
  588      598.358      15.4091
  589      598.766      17.6455
  590      599.174      17.6909
  591      599.582      16.2636
  592      599.989      15.9455
  593      600.397      17.1636
  594      600.804      17.0455
  595      601.212      16.1636
  596      601.619      16.0727
  597      602.026      15.6636
  598      602.433      15.6364
  599       602.84      29.0636
  600      603.247      48.4909
  601      603.654      58.2182
  602       604.06      62.6091
  603      604.467      63.5909
  604      604.873      62.7818
  605      605.279      59.9364
  606      605.686      55.8455
  607      606.092         53.8
  608      606.498      53.2545
  609      606.904      50.7727
  610      607.309      35.2364
  611      607.715      14.5909
  612      608.121      5.25455
  613      608.526      1.45455
  614      608.932     -1.76364
  615      609.337     -3.76364
  616      609.742      4.68182
  617      610.147      17.2091
  618      610.552      22.5818
  619      610.957      26.5636
  620      611.362      30.8727
  621      611.766      32.6364
  622      612.171      33.9909
  623      612.576      34.5455
  624       612.98      34.6273
  625      613.384      38.3455
  626      613.788         42.5
  627      614.192      37.0636
  628      614.596      26.7182
  629          615      23.5182
  630      615.404      22.5182
  631      615.808      20.0636
  632      616.211      18.2818
  633      616.615         17.3
  634      617.018      15.7727
  635      617.421      14.2909
  636      617.824      11.6091
  637      618.227      8.51818
  638       618.63      6.06364
  639      619.033      4.10909
  640      619.436      1.72727
  641      619.838     -2.13636
  642      620.241     -4.39091
  643      620.643     -3.83636
  644      621.046         -3.2
  645      621.448     -1.51818
  646       621.85      1.04545
  647      622.252      2.07273
  648      622.654     0.554545
  649      623.056     0.690909
  650      623.457      3.43636
  651      623.859      4.15455
  652       624.26      4.20909
  653      624.662      4.02727
  654      625.063      2.49091
  655      625.464     0.536364
  656      625.865     -2.49091
  657      626.266         -5.6
  658      626.667     -7.69091
  659      627.068     -6.40909
  660      627.468     -5.16364
  661      627.869     -5.77273
  662      628.269     -4.15455
  663       628.67    -0.863636
  664       629.07      1.22727
  665       629.47      1.78182
  666       629.87      2.42727
  667       630.27      3.61818
  668       630.67      3.97273
  669       631.07          3.6
  670      631.469      1.17273
  671      631.869   -0.0454545
  672      632.268      1.41818
  673      632.667      1.35455
  674      633.067          0.5
  675      633.466    -0.336364
  676      633.865     -2.27273
  677      634.264     -4.18182
  678      634.662     -5.25455
  679      635.061     -5.74545
  680       635.46     -4.89091
  681      635.858     -3.57273
  682      636.256     -4.34545
  683      636.655     -7.21818
  684      637.053     -9.79091
  685      637.451     -11.9455
  686      637.849     -13.7727
  687      638.247     -14.2091
  688      638.644     -14.4182
  689      639.042     -14.6455
  690       639.44     -14.4818
  691      639.837     -14.3455
  692      640.234     -11.0818
  693      640.631     -5.96364
  694      641.029     -2.46364
  695      641.426     0.436364
  696      641.822            2
  697      642.219      3.03636
  698      642.616      4.74545
  699      643.013      7.15455
  700      643.409      9.48182
  701      643.805      10.5455
  702      644.202      9.77273
  703      644.598      6.02727
  704      644.994     0.363636
  705       645.39     -4.89091
  706      645.786     -8.08182
  707      646.181     -8.74545
  708      646.577     -8.73636
  709      646.973     -10.0909
  710      647.368     -11.0636
  711      647.763     -11.3545
  712      648.158     -12.3091
  713      648.554     -12.3545
  714      648.949     -12.0273
  715      649.344        -11.4
  716      649.738     -9.47273
  717      650.133     -8.03636
  718      650.528     -7.74545
  719      650.922     -7.99091
  720      651.316     -7.60909
  721      651.711     -6.39091
  722      652.105     -4.86364
  723      652.499     -2.60909
  724      652.893    -0.972727
  725      653.287   -0.0272727
  726       653.68      2.66364
  727      654.074      5.76364
  728      654.468      7.11818
  729      654.861      7.15455
  730      655.254      8.26364
  731      655.648      10.1636
  732      656.041      9.62727
  733      656.434      7.62727
  734      656.827      7.08182
  735      657.219      7.72727
  736      657.612      7.56364
  737      658.005      4.64545
  738      658.397          2.9
  739      658.789      5.07273
  740      659.182      7.45455
  741      659.574      9.24545
  742      659.966      10.1818
  743      660.358      9.51818
  744       660.75      9.67273
  745      661.141      9.68182
  746      661.533      8.65455
  747      661.924      8.93636
  748      662.316      9.51818
  749      662.707      7.34545
  750      663.098      2.80909
  751      663.489     0.690909
  752       663.88     0.154545
  753      664.271    -0.381818
  754      664.662      2.22727
  755      665.053      4.49091
  756      665.443      4.77273
  757      665.834      5.50909
  758      666.224      5.35455
  759      666.614      4.50909
  760      667.004      3.21818
  761      667.394      2.18182
  762      667.784    -0.254545
  763      668.174     -4.20909
  764      668.564     -6.95455
  765      668.953     -9.55455
  766      669.343     -11.4455
  767      669.732     -12.5455
  768      670.122     -14.0636
  769      670.511     -14.7545
  770        670.9     -14.2182
  771      671.289        -12.8
  772      671.678     -11.6545
  773      672.066     -9.07273
  774      672.455     -6.17273
  775      672.843     -4.76364
  776      673.232     -3.49091
  777       673.62     -2.62727
  778      674.008     -2.71818
  779      674.396     -2.04545
  780      674.784     0.845455
  781      675.172      3.46364
  782       675.56      4.09091
  783      675.948      2.92727
  784      676.335    -0.309091
  785      676.723     -3.91818
  786       677.11     -6.74545
  787      677.497         -9.1
  788      677.884     -11.3818
  789      678.271     -13.6364
  790      678.658     -15.9273
  791      679.045     -19.7091
  792      679.432     -22.6455
  793      679.818     -22.2182
  794      680.205     -20.8909
  795      680.591     -19.3545
  796      680.978     -17.4273
  797      681.364     -16.1727
  798       681.75     -16.4727
  799      682.136     -16.9909
  800      682.522     -15.0364
  801      682.907     -12.0818
  802      683.293     -8.01818
  803      683.678     -3.37273
  804      684.064         -0.7
  805      684.449            1
  806      684.834      1.45455
  807      685.219      1.54545
  808      685.604      3.92727
  809      685.989      7.68182
  810      686.374      11.4818
  811      686.759      15.7909
  812      687.143      18.8909
  813      687.528         18.4
  814      687.912      15.3455
  815      688.296         14.2
  816       688.68      16.0636
  817      689.064      18.2545
  818      689.448      19.6091
  819      689.832      20.1182
  820      690.216      19.2909
  821      690.599      17.1091
  822      690.983         13.5
  823      691.366      9.57273
  824      691.749      6.56364
  825      692.132      4.92727
  826      692.515      3.94545
  827      692.898      2.93636
  828      693.281          2.7
  829      693.664      2.56364
  830      694.046          1.2
  831      694.429    -0.590909
  832      694.811     -1.16364
  833      695.193     -1.18182
  834      695.575     -2.08182
  835      695.958     -1.42727
  836      696.339   -0.0636364
  837      696.721         -1.5
  838      697.103     -5.07273
  839      697.485     -8.00909
  840      697.866     -9.11818
  841      698.247     -10.2364
  842      698.629     -11.3455
  843       699.01     -11.3455
  844      699.391     -10.9909
  845      699.772     -9.82727
  846      700.153     -8.36364
  847      700.533     -6.92727
  848      700.914     -4.24545
  849      701.295          0.1
  850      701.675      3.92727
  851      702.055      6.08182
  852      702.435      7.38182
  853      702.816          8.3
  854      703.195      7.44545
  855      703.575          4.3
  856      703.955      1.35455
  857      704.335     -1.37273
  858      704.714         -5.3
  859      705.094     -10.9273
  860      705.473     -17.0818
  861      705.852     -23.0909
  862      706.231        -28.7
  863       706.61     -32.3636
  864      706.989     -33.1909
  865      707.368     -31.9727
  866      707.746     -30.0818
  867      708.125     -27.8364
  868      708.503        -26.4
  869      708.882     -25.5909
  870       709.26     -23.7818
  871      709.638     -21.7727
  872      710.016     -19.0636
  873      710.394     -14.8545
  874      710.772     -11.4182
  875      711.149     -10.8636
  876      711.527     -11.8636
  877      711.904     -12.2455
  878      712.282     -13.6727
  879      712.659     -13.6818
  880      713.036     -11.2727
  881      713.413     -10.0182
  882       713.79     -9.57273
  883      714.167     -8.17273
  884      714.543     -7.02727
  885       714.92     -6.50909
  886      715.296     -5.56364
  887      715.673     -5.40909
  888      716.049     -3.63636
  889      716.425     -1.11818
  890      716.801     -1.58182
  891      717.177     -2.66364
  892      717.553     -1.93636
  893      717.928    -0.681818
  894      718.304    -0.736364
  895      718.679     -1.87273
  896      719.055     -2.74545
  897       719.43         -3.1
  898      719.805     -3.01818
  899       720.18     -3.99091
  900      720.555     -3.52727
  901       720.93     -1.79091
  902      721.304     -1.55455
  903      721.679     -2.19091
  904      722.053     -2.54545
  905      722.428     -3.31818
  906      722.802     -5.08182
  907      723.176     -6.31818
  908       723.55     -6.14545
  909      723.924     -4.59091
  910      724.298         -2.2
  911      724.671          0.3
  912      725.045      1.75455
  913      725.418          3.2
  914      725.792      4.59091
  915      726.165      4.96364
  916      726.538      5.03636
  917      726.911      6.64545
  918      727.284      9.51818
  919      727.657      10.4182
  920      728.029      10.0727
  921      728.402      9.20909
  922      728.774      8.06364
  923      729.147      7.89091
  924      729.519      8.02727
  925      729.891      9.97273
  926      730.263         12.4
  927      730.635      13.9545
  928      731.007      14.6182
  929      731.378      15.9636
  930       731.75      18.7727
  931      732.121      19.8909
  932      732.493      18.7636
  933      732.864      16.8091
  934      733.235      15.4636
  935      733.606      14.7364
  936      733.977      13.0727
  937      734.348      11.7364
  938      734.718      11.7909
  939      735.089      11.7182
  940      735.459      9.41818
  941       735.83          5.4
  942        736.2      3.02727
  943       736.57      1.41818
  944       736.94    -0.863636
  945       737.31     -3.51818
  946      737.679     -7.20909
  947      738.049     -11.9364
  948      738.419     -14.4545
  949      738.788     -14.7455
  950      739.157     -15.2909
  951      739.527     -14.8727
  952      739.896     -13.1818
  953      740.265     -13.2364
  954      740.634     -12.5364
  955      741.002     -10.8182
  956      741.371           -9
  957      741.739     -6.14545
  958      742.108     -3.39091
  959      742.476     -2.78182
  960      742.844     -3.52727
  961      743.212     -1.41818
  962       743.58     0.863636
  963      743.948      2.63636
  964      744.316      5.15455
  965      744.684      5.62727
  966      745.051      5.35455
  967      745.418      5.15455
  968      745.786      4.67273
  969      746.153      4.67273
  970       746.52      5.03636
  971      746.887      5.07273
  972      747.254      2.61818
  973       747.62           -1
  974      747.987     -4.50909
  975      748.354     -7.35455
  976       748.72     -9.45455
  977      749.086     -10.1182
  978      749.452     -9.38182
  979      749.818     -9.28182
  980      750.184         -9.2
  981       750.55     -9.57273
  982      750.916     -9.66364
  983      751.281     -8.43636
  984      751.647     -7.54545
  985      752.012     -7.75455
  986      752.377     -8.19091
  987      752.743     -8.52727
  988      753.108     -8.72727
  989      753.473         -9.1
  990      753.837     -9.90909
  991      754.202     -10.6818
  992      754.567     -9.94545
  993      754.931     -8.99091
  994      755.295     -8.73636
  995       755.66     -7.43636
  996      756.024     -5.55455
  997      756.388         -2.2
  998      756.752      2.76364
  999      757.115      5.20909
 1000      757.479      5.67273
 1001      757.843      7.50909
 1002      758.206      9.41818
 1003      758.569      9.89091
 1004      758.932      9.39091
 1005      759.296      8.05455
 1006      759.659      6.79091
 1007      760.021      7.11818
 1008      760.384      4.77273
 1009      760.747     0.290909
 1010      761.109     -2.40909
 1011      761.472         -4.5
 1012      761.834     -7.14545
 1013      762.196     -8.67273
 1014      762.558     -8.97273
 1015       762.92     -10.1727
 1016      763.282     -11.4455
 1017      763.644     -12.3636
 1018      764.005     -14.1455
 1019      764.367     -14.8545
 1020      764.728        -14.4
 1021      765.089     -14.3636
 1022      765.451     -14.6636
 1023      765.812        -13.7
 1024      766.172     -12.7091
 1025      766.533     -12.9273
 1026      766.894     -12.6909
 1027      767.255     -12.5091
 1028      767.615     -13.6091
 1029      767.975     -14.3545
 1030      768.336     -14.3818
 1031      768.696     -12.6545
 1032      769.056     -10.1909
 1033      769.416     -8.31818
 1034      769.775     -7.37273
 1035      770.135     -7.26364
 1036      770.494     -6.52727
 1037      770.854     -5.98182
 1038      771.213     -4.13636
 1039      771.572         -0.5
 1040      771.931      2.90909
 1041       772.29      5.35455
 1042      772.649      4.61818
 1043      773.008      2.33636
 1044      773.367     0.863636
 1045      773.725    -0.354545
 1046      774.083   -0.0545455
 1047      774.442     0.709091
 1048        774.8      2.95455
 1049      775.158      6.02727
 1050      775.516      5.80909
 1051      775.874      4.74545
 1052      776.231          5.1
 1053      776.589      5.20909
 1054      776.946      4.73636
 1055      777.304      5.01818
 1056      777.661      6.83636
 1057      778.018      6.55455
 1058      778.375      5.65455
 1059      778.732      4.71818
 1060      779.089      1.24545
 1061      779.445     -1.02727
 1062      779.802     -3.62727
 1063      780.158     -6.77273
 1064      780.515     -6.41818
 1065      780.871     -2.75455
 1066      781.227     0.809091
 1067      781.583      2.21818
 1068      781.939      2.69091
 1069      782.294     0.745455
 1070       782.65     -3.14545
 1071      783.006     -5.88182
 1072      783.361     -7.34545
 1073      783.716     -6.67273
 1074      784.071     -4.65455
 1075      784.426     -3.70909
 1076      784.781     -4.65455
 1077      785.136     -7.21818
 1078      785.491     -10.9091
 1079      785.845     -11.9636
 1080        786.2     -8.47273
 1081      786.554     -3.05455
 1082      786.908      1.19091
 1083      787.262          3.3
 1084      787.616          2.4
 1085       787.97     0.354545
 1086      788.324    -0.745455
 1087      788.678     -1.82727
 1088      789.031     -1.28182
 1089      789.385      1.89091
 1090      789.738      4.10909
 1091      790.091      3.10909
 1092      790.444    0.0727273
 1093      790.797     -2.15455
 1094       791.15     -2.82727
 1095      791.503    -0.945455
 1096      791.855      1.63636
 1097      792.208      2.46364
 1098       792.56      3.31818
 1099      792.912      3.50909
 1100      793.264      2.85455
 1101      793.616      3.12727
 1102      793.968      3.59091
 1103       794.32          3.5
 1104      794.672      3.26364
 1105      795.023      3.51818
 1106      795.375      2.99091
 1107      795.726      1.42727
 1108      796.077    0.0272727
 1109      796.428     -3.16364
 1110      796.779     -6.82727
 1111       797.13     -9.94545
 1112      797.481     -14.4273
 1113      797.831     -18.6636
 1114      798.182     -20.6364
 1115      798.532     -20.2364
 1116      798.882     -18.1273
 1117      799.232     -16.4727
 1118      799.582     -15.9091
 1119      799.932     -14.5455
 1120      800.282     -11.1909
 1121      800.632     -9.09091
 1122      800.981     -8.57273
 1123      801.331     -7.71818
 1124       801.68     -6.26364
 1125      802.029         -4.5
 1126      802.378     -3.87273
 1127      802.727     -4.37273
 1128      803.076     -4.14545
 1129      803.425     -2.66364
 1130      803.773     -2.55455
 1131      804.122     -4.03636
 1132       804.47     -4.32727
 1133      804.818     -3.50909
 1134      805.167     -2.00909
 1135      805.515    -0.290909
 1136      805.862     0.609091
 1137       806.21          1.1
 1138      806.558     0.690909
 1139      806.905    -0.354545
 1140      807.253    -0.863636
 1141        807.6    -0.636364
 1142      807.947     0.545455
 1143      808.294      3.01818
 1144      808.641      6.10909
 1145      808.988      7.68182
 1146      809.335      7.15455
 1147      809.682      6.21818
 1148      810.028      4.59091
 1149      810.374      4.66364
 1150      810.721          5.7
 1151      811.067      4.61818
 1152      811.413      2.99091
 1153      811.759     0.281818
 1154      812.104     -3.46364
 1155       812.45     -7.66364
 1156      812.796     -10.3091
 1157      813.141     -10.1455
 1158      813.486     -9.27273
 1159      813.831     -7.58182
 1160      814.176     -7.42727
 1161      814.521     -9.13636
 1162      814.866     -10.2909
 1163      815.211     -9.22727
 1164      815.555     -5.98182
 1165        815.9     -3.25455
 1166      816.244         -0.8
 1167      816.589            1
 1168      816.933      1.08182
 1169      817.277      1.74545
 1170       817.62      1.95455
 1171      817.964     0.890909
 1172      818.308      1.46364
 1173      818.651      2.09091
 1174      818.995   -0.0363636
 1175      819.338     -3.16364
 1176      819.681     -5.27273
 1177      820.024     -7.89091
 1178      820.367     -9.63636
 1179       820.71     -10.7091
 1180      821.053     -13.1182
 1181      821.395     -14.1727
 1182      821.738     -13.1909
 1183       822.08     -11.8273
 1184      822.422     -8.92727
 1185      822.764     -6.09091
 1186      823.106           -4
 1187      823.448     -2.62727
 1188       823.79     -1.57273
 1189      824.131     -1.85455
 1190      824.473     -3.15455
 1191      824.814     -4.10909
 1192      825.155     -3.77273
 1193      825.496     -3.44545
 1194      825.837     -5.62727
 1195      826.178     -7.86364
 1196      826.519     -8.13636
 1197       826.86         -8.1
 1198        827.2     -7.75455
 1199      827.541         -7.7
 1200      827.881     -8.54545
 1201      828.221     -8.17273
 1202      828.561     -5.75455
 1203      828.901     -5.37273
 1204      829.241     -6.40909
 1205      829.581     -4.98182
 1206       829.92     -3.85455
 1207       830.26     -4.33636
 1208      830.599     -3.38182
 1209      830.938     -3.07273
 1210      831.277     -3.51818
 1211      831.616     -2.77273
 1212      831.955         -2.7
 1213      832.294     -5.24545
 1214      832.632         -8.3
 1215      832.971     -10.9455
 1216      833.309     -14.9636
 1217      833.647     -18.8364
 1218      833.986     -22.0545
 1219      834.324     -25.2091
 1220      834.661     -26.3273
 1221      834.999     -26.2545
 1222      835.337     -26.7545
 1223      835.674     -26.1818
 1224      836.012     -23.2364
 1225      836.349     -20.3909
 1226      836.686     -18.6091
 1227      837.023          -17
 1228       837.36     -15.6636
 1229      837.697        -13.6
 1230      838.034     -12.5636
 1231       838.37     -13.1364
 1232      838.707     -11.7545
 1233      839.043     -9.43636
 1234      839.379     -8.41818
 1235      839.715     -8.24545
 1236      840.051     -7.41818
 1237      840.387     -5.37273
 1238      840.723     -2.73636
 1239      841.058    -0.527273
 1240      841.394          0.1
 1241      841.729     0.581818
 1242      842.064      3.76364
 1243      842.399      6.79091
 1244      842.734      7.43636
 1245      843.069          8.1
 1246      843.404         10.1
 1247      843.739      11.9636
 1248      844.073      11.7727
 1249      844.408      11.4273
 1250      844.742      10.8636
 1251      845.076      9.93636
 1252       845.41      8.84545
 1253      845.744      5.25455
 1254      846.078          0.6
 1255      846.411         -2.3
 1256      846.745         -4.6
 1257      847.078     -8.61818
 1258      847.411        -13.1
 1259      847.745     -15.2727
 1260      848.078     -17.7273
 1261      848.411     -19.4273
 1262      848.743     -18.9636
 1263      849.076     -17.9909
 1264      849.409     -16.9545
 1265      849.741     -16.5636
 1266      850.073     -15.8818
 1267      850.406     -15.4727
 1268      850.738     -15.7818
 1269       851.07     -15.9273
 1270      851.401     -15.6909
 1271      851.733     -13.8818
 1272      852.065     -11.8636
 1273      852.396     -10.5818
 1274      852.727     -10.4182
 1275      853.059        -10.5
 1276       853.39     -9.37273
 1277      853.721         -8.8
 1278      854.052     -8.66364
 1279      854.382     -7.73636
 1280      854.713     -7.34545
 1281      855.043     -7.88182
 1282      855.374     -9.62727
 1283      855.704     -11.3636
 1284      856.034     -13.0818
 1285      856.364        -14.8
 1286      856.694     -17.2091
 1287      857.024     -18.1182
 1288      857.353        -16.9
 1289      857.683     -16.0545
 1290      858.012     -14.6545
 1291      858.341     -11.6636
 1292      858.671     -9.60909
 1293          859     -7.86364
 1294      859.329     -5.63636
 1295      859.657     -4.88182
 1296      859.986     -4.29091
 1297      860.314     -3.79091
 1298      860.643     -4.85455
 1299      860.971         -6.6
 1300      861.299     -6.71818
 1301      861.627     -7.98182
 1302      861.955     -10.7545
 1303      862.283     -11.5545
 1304      862.611     -11.3727
 1305      862.938        -12.5
 1306      863.266     -13.3818
 1307      863.593     -11.6818
 1308       863.92     -8.91818
 1309      864.247     -8.97273
 1310      864.574     -9.14545
 1311      864.901     -9.90909
 1312      865.228     -11.6818
 1313      865.554     -11.7545
 1314      865.881     -11.9091
 1315      866.207     -13.7364
 1316      866.533     -14.7545
 1317      866.859     -13.0455
 1318      867.185     -12.4909
 1319      867.511     -13.6545
 1320      867.837     -13.8636
 1321      868.162     -14.5364
 1322      868.488        -14.7
 1323      868.813     -14.2909
 1324      869.138     -13.9364
 1325      869.463     -12.8545
 1326      869.788     -10.9909
 1327      870.113     -9.55455
 1328      870.438     -10.8545
 1329      870.762     -13.4091
 1330      871.087     -13.9273
 1331      871.411     -13.0182
 1332      871.735     -11.0273
 1333      872.059     -8.58182
 1334      872.383     -5.48182
 1335      872.707     -3.66364
 1336      873.031     -3.89091
 1337      873.354     -4.20909
 1338      873.678     -4.66364
 1339      874.001     -3.99091
 1340      874.324     -1.99091
 1341      874.647    -0.409091
 1342       874.97    -0.418182
 1343      875.293     -1.90909
 1344      875.616     -3.72727
 1345      875.939     -6.53636
 1346      876.261     -9.56364
 1347      876.583     -10.0545
 1348      876.906     -9.53636
 1349      877.228     -9.67273
 1350       877.55         -9.9
 1351      877.872     -11.0545
 1352      878.193          -12
 1353      878.515     -10.4909
 1354      878.836     -7.69091
 1355      879.158     -6.10909
 1356      879.479         -4.7
 1357        879.8     -4.42727
 1358      880.121     -3.73636
 1359      880.442         -1.9
 1360      880.763     -1.41818
 1361      881.083     -2.53636
 1362      881.404         -4.4
 1363      881.724     -6.31818
 1364      882.044     -9.25455
 1365      882.364     -12.8727
 1366      882.684     -15.9636
 1367      883.004     -17.9818
 1368      883.324     -17.9273
 1369      883.644     -17.9545
 1370      883.963     -18.4727
 1371      884.282     -17.7455
 1372      884.602     -15.8364
 1373      884.921     -12.7182
 1374       885.24     -10.1909
 1375      885.559     -8.86364
 1376      885.877     -7.85455
 1377      886.196     -5.88182
 1378      886.514     -2.82727
 1379      886.833     0.145455
 1380      887.151     0.518182
 1381      887.469    -0.336364
 1382      887.787    -0.872727
 1383      888.105     -1.24545
 1384      888.423     -1.28182
 1385       888.74    0.0545455
 1386      889.058      2.29091
 1387      889.375      3.52727
 1388      889.692      4.16364
 1389       890.01          3.9
 1390      890.327      3.62727
 1391      890.643      3.54545
 1392       890.96      3.70909
 1393      891.277      5.04545
 1394      891.593      6.28182
 1395       891.91      6.72727
 1396      892.226      5.81818
 1397      892.542      5.12727
 1398      892.858      5.77273
 1399      893.174      6.12727
 1400      893.489      6.74545
 1401      893.805      6.34545
 1402       894.12      5.78182
 1403      894.436      3.83636
 1404      894.751      1.71818
 1405      895.066     0.790909
 1406      895.381     0.272727
 1407      895.696    -0.154545
 1408      896.011     -1.64545
 1409      896.325     -3.34545
 1410       896.64     -4.20909
 1411      896.954     -5.94545
 1412      897.268     -7.01818
 1413      897.582     -7.29091
 1414      897.896     -7.57273
 1415       898.21     -8.21818
 1416      898.524     -10.0091
 1417      898.837     -11.7273
 1418      899.151     -12.2455
 1419      899.464     -12.1636
 1420      899.777     -12.2364
 1421      900.091     -13.7636
 1422      900.403     -16.4545
 1423      900.716     -18.6091
 1424      901.029     -20.0091
 1425      901.342     -20.6727
 1426      901.654     -21.4273
 1427      901.966     -21.3545
 1428      902.279     -20.0182
 1429      902.591     -19.4273
 1430      902.903     -20.0273
 1431      903.214     -20.6091
 1432      903.526     -19.3727
 1433      903.838        -15.2
 1434      904.149     -11.9818
 1435       904.46     -10.4727
 1436      904.771     -8.53636
 1437      905.083     -7.45455
 1438      905.393     -6.36364
 1439      905.704     -5.11818
 1440      906.015         -4.6
 1441      906.325     -3.38182
 1442      906.636     -1.58182
 1443      906.946     -1.70909
 1444      907.256     -3.39091
 1445      907.566     -4.01818
 1446      907.876     -5.32727
 1447      908.186     -7.89091
 1448      908.496     -9.64545
 1449      908.805     -11.3818
 1450      909.115     -13.6455
 1451      909.424     -14.9818
 1452      909.733     -16.1455
 1453      910.042        -18.5
 1454      910.351     -19.7182
 1455       910.66     -20.3545
 1456      910.968     -20.3273
 1457      911.277     -17.3818
 1458      911.585     -14.5909
 1459      911.893     -12.7909
 1460      912.202     -11.6818
 1461       912.51     -11.4727
 1462      912.817     -11.2545
 1463      913.125     -10.5909
 1464      913.433     -9.56364
 1465       913.74     -8.57273
 1466      914.048     -7.39091
 1467      914.355     -8.32727
 1468      914.662     -11.6091
 1469      914.969     -14.0818
 1470      915.276     -14.7909
 1471      915.583     -15.5818
 1472      915.889     -17.0909
 1473      916.196     -16.4545
 1474      916.502     -14.5091
 1475      916.808     -13.2364
 1476      917.114     -13.6727
 1477       917.42     -13.7182
 1478      917.726     -11.8182
 1479      918.032     -10.5364
 1480      918.337     -8.50909
 1481      918.643     -7.76364
 1482      918.948     -8.43636
 1483      919.253     -8.38182
 1484      919.558         -9.9
 1485      919.863     -12.0364
 1486      920.168     -12.9273
 1487      920.473     -12.8455
 1488      920.777     -14.1182
 1489      921.082        -17.4
 1490      921.386     -19.8091
 1491       921.69     -22.8909
 1492      921.994     -26.0364
 1493      922.298     -26.2273
 1494      922.602     -25.8364
 1495      922.905     -25.9455
 1496      923.209          -26
 1497      923.512     -27.6545
 1498      923.816     -29.4455
 1499      924.119     -30.5091
 1500      924.422     -30.9273
 1501      924.724     -30.5455
 1502      925.027     -29.8727
 1503       925.33     -28.4909
 1504      925.632        -27.2
 1505      925.935     -24.9545
 1506      926.237     -23.0182
 1507      926.539     -23.1364
 1508      926.841     -23.3273
 1509      927.143     -23.4455
 1510      927.445     -21.9636
 1511      927.746     -18.2545
 1512      928.048     -15.5273
 1513      928.349     -13.4727
 1514       928.65     -12.3182
 1515      928.951     -12.6818
 1516      929.252     -14.6545
 1517      929.553     -17.0909
 1518      929.854     -17.9273
 1519      930.154     -17.6364
 1520      930.454     -16.8545
 1521      930.755     -17.7545
 1522      931.055     -20.0455
 1523      931.355     -21.5364
 1524      931.655     -21.9091
 1525      931.955     -20.8818
 1526      932.254        -19.2
 1527      932.554          -17
 1528      932.853          -15
 1529      933.152     -13.7636
 1530      933.452     -11.7273
 1531      933.751         -9.2
 1532      934.049     -7.25455
 1533      934.348     -6.98182
 1534      934.647     -7.09091
 1535      934.945     -7.74545
 1536      935.244     -9.65455
 1537      935.542     -11.7818
 1538       935.84          -14
 1539      936.138     -13.9273
 1540      936.436     -13.1273
 1541      936.733     -14.4545
 1542      937.031     -16.2182
 1543      937.328     -17.2182
 1544      937.626     -16.1636
 1545      937.923     -14.4636
 1546       938.22     -13.1455
 1547      938.517     -9.60909
 1548      938.814     -5.92727
 1549       939.11     -4.51818
 1550      939.407     -5.13636
 1551      939.703     -3.98182
 1552      939.999    -0.745455
 1553      940.295      1.33636
 1554      940.591      2.00909
 1555      940.887      1.02727
 1556      941.183     -1.10909
 1557      941.479     -3.74545
 1558      941.774     -7.43636
 1559       942.07     -10.8727
 1560      942.365     -12.6364
 1561       942.66     -13.6818
 1562      942.955     -16.1182
 1563       943.25     -18.6818
 1564      943.544     -20.1091
 1565      943.839          -21
 1566      944.133     -22.6364
 1567      944.428     -24.3091
 1568      944.722     -24.6909
 1569      945.016     -25.7636
 1570       945.31     -26.6273
 1571      945.604     -26.9818
 1572      945.897     -27.2727
 1573      946.191     -26.6545
 1574      946.484     -25.8091
 1575      946.777     -25.0455
 1576       947.07        -23.5
 1577      947.363     -21.1364
 1578      947.656     -18.5273
 1579      947.949     -15.7909
 1580      948.242        -13.1
 1581      948.534     -11.2364
 1582      948.826     -8.75455
 1583      949.119     -6.70909
 1584      949.411     -6.87273
 1585      949.703     -7.39091
 1586      949.995     -8.58182
 1587      950.286     -11.7727
 1588      950.578     -13.2455
 1589      950.869     -12.4727
 1590       951.16     -12.3273
 1591      951.452     -13.3273
 1592      951.743     -14.6818
 1593      952.034     -15.3818
 1594      952.324     -15.6091
 1595      952.615     -14.5455
 1596      952.905        -13.4
 1597      953.196        -12.6
 1598      953.486     -11.0091
 1599      953.776         -9.8
 1600      954.066     -10.3818
 1601      954.356     -12.0636
 1602      954.646        -11.3
 1603      954.935     -9.52727
 1604      955.225         -9.8
 1605      955.514     -11.4727
 1606      955.803     -14.5091
 1607      956.092     -16.9182
 1608      956.381     -17.1636
 1609       956.67     -16.0455
 1610      956.959        -15.8
 1611      957.247     -16.2182
 1612      957.536     -14.9818
 1613      957.824     -14.7091
 1614      958.112     -14.1636
 1615        958.4     -12.9455
 1616      958.688     -12.2273
 1617      958.976        -11.2
 1618      959.263     -9.76364
 1619      959.551     -9.15455
 1620      959.838     -11.0727
 1621      960.125     -13.8727
 1622      960.412     -16.7091
 1623      960.699     -19.8364
 1624      960.986     -22.6909
 1625      961.273     -24.9909
 1626      961.559     -25.6909
 1627      961.846     -24.9182
 1628      962.132     -24.5364
 1629      962.418     -24.5636
 1630      962.704     -24.5727
 1631       962.99     -22.5909
 1632      963.276     -20.0818
 1633      963.561     -17.7727
 1634      963.847     -15.3909
 1635      964.132     -14.1636
 1636      964.417     -14.5455
 1637      964.702     -15.9182
 1638      964.987     -16.2273
 1639      965.272     -15.0273
 1640      965.557     -15.6909
 1641      965.841     -16.3636
 1642      966.126     -15.7273
 1643       966.41     -13.7545
 1644      966.694     -10.6273
 1645      966.978     -8.66364
 1646      967.262     -6.71818
 1647      967.546     -4.72727
 1648      967.829     -3.49091
 1649      968.113     -3.45455
 1650      968.396     -3.27273
 1651      968.679     -2.15455
 1652      968.963     -1.94545
 1653      969.245     -2.39091
 1654      969.528     -3.81818
 1655      969.811         -6.9
 1656      970.094         -5.6
 1657      970.376     -2.11818
 1658      970.658     -1.24545
 1659       970.94     0.681818
 1660      971.222      3.43636
 1661      971.504      3.31818
 1662      971.786      1.23636
 1663      972.068    -0.481818
 1664      972.349     -2.53636
 1665       972.63         -4.3
 1666      972.912     -4.47273
 1667      973.193     -8.23636
 1668      973.474        -14.2
 1669      973.755          -18
 1670      974.035     -23.2818
 1671      974.316     -29.7273
 1672      974.596     -33.4273
 1673      974.876     -34.1818
 1674      975.157     -33.2909
 1675      975.437     -32.1273
 1676      975.716        -32.4
 1677      975.996     -33.6455
 1678      976.276     -35.0636
 1679      976.555        -34.8
 1680      976.835     -32.9273
 1681      977.114     -29.4727
 1682      977.393     -24.6545
 1683      977.672        -20.9
 1684      977.951     -18.9455
 1685      978.229        -19.5
 1686      978.508     -20.2545
 1687      978.786     -18.8455
 1688      979.065     -15.6273
 1689      979.343     -12.5182
 1690      979.621     -11.4909
 1691      979.898         -9.2
 1692      980.176     -7.30909
 1693      980.454     -8.39091
 1694      980.731     -9.73636
 1695      981.009     -10.0182
 1696      981.286     -8.59091
 1697      981.563     -7.87273
 1698       981.84     -8.94545
 1699      982.117     -10.9273
 1700      982.393     -11.0364
 1701       982.67     -9.94545
 1702      982.946     -12.5636
 1703      983.222     -16.1636
 1704      983.498     -17.6909
 1705      983.774     -18.8545
 1706       984.05     -20.1818
 1707      984.326     -22.7727
 1708      984.602     -25.2091
 1709      984.877     -26.0364
 1710      985.152     -26.9727
 1711      985.427     -29.4545
 1712      985.703     -30.2091
 1713      985.977     -28.1727
 1714      986.252        -26.7
 1715      986.527     -26.0273
 1716      986.801     -24.7182
 1717      987.076     -22.5818
 1718       987.35     -20.1545
 1719      987.624     -18.2545
 1720      987.898     -17.9545
 1721      988.172     -18.6091
 1722      988.445     -18.1364
 1723      988.719     -19.5636
 1724      988.992     -23.8182
 1725      989.266     -27.1364
 1726      989.539     -29.3273
 1727      989.812     -31.5545
 1728      990.085        -33.9
 1729      990.357     -35.3273
 1730       990.63     -35.9273
 1731      990.902     -35.8455
 1732      991.175     -34.0455
 1733      991.447     -32.1364
 1734      991.719     -28.9636
 1735      991.991     -23.3545
 1736      992.263     -19.5273
 1737      992.534     -16.5818
 1738      992.806     -14.2545
 1739      993.077     -14.2182
 1740      993.348     -15.3909
 1741       993.62     -16.6273
 1742      993.891     -16.8273
 1743      994.161        -16.8
 1744      994.432     -17.0909
 1745      994.703     -18.1727
 1746      994.973     -21.1182
 1747      995.243     -22.9727
 1748      995.513     -23.9545
 1749      995.784     -24.4818
 1750      996.053          -24
 1751      996.323     -23.2364
 1752      996.593     -21.6727
 1753      996.862     -20.7818
 1754      997.132        -20.3
 1755      997.401     -19.2182
 1756       997.67     -19.1545
 1757      997.939     -19.2909
 1758      998.208     -19.8182
 1759      998.476     -21.2636
 1760      998.745     -21.8727
 1761      999.013     -21.5455
 1762      999.281     -20.1818
 1763      999.549     -18.5818
 1764      999.817          -18
 1765      1000.09     -18.9727
 1766      1000.35     -21.2636
 1767      1000.62     -23.3273
 1768      1000.89     -23.2091
 1769      1001.16     -22.0727
 1770      1001.42     -21.9909
 1771      1001.69     -22.9636
 1772      1001.96     -23.8909
 1773      1002.22        -24.7
 1774      1002.49     -26.8182
 1775      1002.76        -28.7
 1776      1003.02     -30.2182
 1777      1003.29     -31.6636
 1778      1003.55     -32.2091
 1779      1003.82     -34.3545
 1780      1004.09     -36.2636
 1781      1004.35        -35.2
 1782      1004.62     -32.6636
 1783      1004.88     -30.9727
 1784      1005.15     -30.5909
 1785      1005.41     -27.9091
 1786      1005.68        -24.4
 1787      1005.94     -21.4909
 1788      1006.21     -18.6455
 1789      1006.47     -17.3182
 1790      1006.74     -16.0091
 1791         1007     -15.4182
 1792      1007.26     -15.4727
 1793      1007.53     -16.4545
 1794      1007.79     -17.7545
 1795      1008.06     -18.8545
 1796      1008.32     -22.1727
 1797      1008.58     -25.5545
 1798      1008.85     -25.9091
 1799      1009.11     -23.2727
 1800      1009.37     -20.5909
 1801      1009.64     -19.1727
 1802       1009.9     -16.5818
 1803      1010.16     -12.9727
 1804      1010.42     -9.92727
 1805      1010.69     -6.86364
 1806      1010.95     -3.95455
 1807      1011.21     -1.07273
 1808      1011.47      2.06364
 1809      1011.73      1.40909
 1810         1012     -2.81818
 1811      1012.26     -4.86364
 1812      1012.52     -5.25455
 1813      1012.78         -5.9
 1814      1013.04     -7.26364
 1815       1013.3     -8.53636
 1816      1013.56     -9.45455
 1817      1013.82     -10.4273
 1818      1014.08     -11.8727
 1819      1014.34     -13.7091
 1820       1014.6     -13.4273
 1821      1014.86     -13.7545
 1822      1015.12     -16.3727
 1823      1015.38     -18.8182
 1824      1015.64     -20.5273
 1825       1015.9     -22.9273
 1826      1016.16        -24.6
 1827      1016.42     -25.5909
 1828      1016.68     -26.4818
 1829      1016.94     -25.4091
 1830       1017.2     -23.5818
 1831      1017.46     -22.1727
 1832      1017.72     -20.7455
 1833      1017.98     -18.7545
 1834      1018.23     -15.5364
 1835      1018.49     -12.1273
 1836      1018.75     -9.49091
 1837      1019.01     -8.19091
 1838      1019.27     -7.55455
 1839      1019.52         -6.6
 1840      1019.78     -6.47273
 1841      1020.04     -7.43636
 1842       1020.3         -7.7
 1843      1020.55     -5.96364
 1844      1020.81     -3.50909
 1845      1021.07     -2.13636
 1846      1021.32     -3.59091
 1847      1021.58     -5.24545
 1848      1021.84     -5.02727
 1849      1022.09     -4.23636
 1850      1022.35     -4.11818
 1851       1022.6     -5.95455
 1852      1022.86     -8.25455
 1853      1023.12     -10.1545
 1854      1023.37     -13.0364
 1855      1023.63     -15.6455
 1856      1023.88     -17.2818
 1857      1024.14     -17.9727
 1858      1024.39     -18.3636
 1859      1024.65     -19.8091
 1860       1024.9     -22.1182
 1861      1025.16     -24.4273
 1862      1025.41     -23.9091
 1863      1025.67     -20.4909
 1864      1025.92     -16.8091
 1865      1026.17     -12.7909
 1866      1026.43     -9.80909
 1867      1026.68     -9.60909
 1868      1026.93     -10.7818
 1869      1027.19        -12.1
 1870      1027.44     -12.7909
 1871      1027.69     -12.0909
 1872      1027.95     -11.4909
 1873       1028.2     -12.2182
 1874      1028.45     -14.8545
 1875      1028.71     -19.6182
 1876      1028.96     -24.3818
 1877      1029.21     -27.1364
 1878      1029.46     -28.3545
 1879      1029.71     -29.3636
 1880      1029.97     -29.7909
 1881      1030.22     -29.2182
 1882      1030.47     -29.2182
 1883      1030.72     -28.7727
 1884      1030.97     -28.3182
 1885      1031.22     -27.8364
 1886      1031.48     -26.0364
 1887      1031.73     -24.2455
 1888      1031.98     -24.0909
 1889      1032.23     -25.1545
 1890      1032.48        -25.8
 1891      1032.73        -26.2
 1892      1032.98     -27.8909
 1893      1033.23     -29.9455
 1894      1033.48     -31.5545
 1895      1033.73     -32.5182
 1896      1033.98     -32.3091
 1897      1034.23     -32.7545
 1898      1034.48     -34.2091
 1899      1034.73     -34.9545
 1900      1034.98     -33.0636
 1901      1035.22     -29.4636
 1902      1035.47     -26.5909
 1903      1035.72     -24.1182
 1904      1035.97        -21.7
 1905      1036.22     -20.6909
 1906      1036.47     -20.4182
 1907      1036.72     -19.4636
 1908      1036.96     -17.4364
 1909      1037.21     -14.5091
 1910      1037.46     -11.5091
 1911      1037.71        -10.7
 1912      1037.95     -11.8818
 1913       1038.2     -12.5455
 1914      1038.45     -13.2545
 1915       1038.7     -15.0091
 1916      1038.94     -15.6909
 1917      1039.19     -15.5364
 1918      1039.44     -15.0273
 1919      1039.68     -14.8727
 1920      1039.93     -16.7455
 1921      1040.17     -19.8909
 1922      1040.42     -22.4455
 1923      1040.67     -24.0727
 1924      1040.91     -24.6636
 1925      1041.16        -23.5
 1926       1041.4     -20.0545
 1927      1041.65        -17.2
 1928      1041.89     -17.1364
 1929      1042.14     -19.3091
 1930      1042.38     -21.4545
 1931      1042.63     -21.3182
 1932      1042.87     -19.7364
 1933      1043.12     -18.2091
 1934      1043.36     -16.3909
 1935      1043.61     -14.2818
 1936      1043.85     -12.5909
 1937      1044.09     -12.1091
 1938      1044.34     -11.1909
 1939      1044.58     -8.77273
 1940      1044.82     -7.57273
 1941      1045.07     -8.10909
 1942      1045.31     -8.42727
 1943      1045.55     -8.59091
 1944       1045.8     -8.59091
 1945      1046.04     -8.83636
 1946      1046.28     -10.8818
 1947      1046.53     -13.7455
 1948      1046.77     -14.7455
 1949      1047.01     -12.8091
 1950      1047.25     -10.2636
 1951      1047.49     -6.40909
 1952      1047.74    -0.954545
 1953      1047.98      4.08182
 1954      1048.22      7.88182
 1955      1048.46      10.3455
 1956       1048.7      12.5455
 1957      1048.94         15.8
 1958      1049.18      18.4455
 1959      1049.42      17.8909
 1960      1049.66      15.1727
 1961       1049.9      12.6455
 1962      1050.15      9.39091
 1963      1050.39      5.00909
 1964      1050.63            0
 1965      1050.87     -4.10909
 1966      1051.11     -6.54545
 1967      1051.34     -8.72727
 1968      1051.58     -10.8091
 1969      1051.82     -10.0273
 1970      1052.06         -7.9
 1971       1052.3     -8.19091
 1972      1052.54     -10.1364
 1973      1052.78     -12.6818
 1974      1053.02     -15.2455
 1975      1053.26        -17.1
 1976      1053.49     -19.0727
 1977      1053.73     -20.1182
 1978      1053.97     -20.3091
 1979      1054.21     -23.1273
 1980      1054.45     -28.7364
 1981      1054.68     -32.6091
 1982      1054.92     -33.9727
 1983      1055.16     -33.9636
 1984       1055.4     -31.5364
 1985      1055.63     -28.0818
 1986      1055.87     -25.9091
 1987      1056.11     -24.8636
 1988      1056.34     -24.6818
 1989      1056.58     -24.0909
 1990      1056.82     -22.1182
 1991      1057.05     -21.0273
 1992      1057.29     -22.2727
 1993      1057.52     -23.8364
 1994      1057.76     -24.9636
 1995         1058        -26.3
 1996      1058.23     -27.5727
 1997      1058.47     -29.1091
 1998       1058.7     -30.7909
 1999      1058.94     -32.2636
 2000      1059.17     -29.1273
 2001      1059.41     -22.6909
 2002      1059.64     -17.1364
 2003      1059.88     -10.3182
 2004      1060.11     -3.50909
 2005      1060.34      1.19091
 2006      1060.58      2.57273
 2007      1060.81      3.33636
 2008      1061.05      5.37273
 2009      1061.28      8.07273
 2010      1061.51      10.3545
 2011      1061.75      7.60909
 2012      1061.98      2.15455
 2013      1062.21         -1.9
 2014      1062.45     -6.82727
 2015      1062.68     -12.0818
 2016      1062.91     -15.4818
 2017      1063.14     -16.1545
 2018      1063.38     -15.1727
 2019      1063.61        -13.3
 2020      1063.84     -11.3909
 2021      1064.07     -9.83636
 2022       1064.3     -9.18182
 2023      1064.53     -7.39091
 2024      1064.77     -4.28182
 2025         1065     -2.50909
 2026      1065.23     -1.78182
 2027      1065.46     -2.06364
 2028      1065.69     -4.24545
 2029      1065.92     -8.47273
 2030      1066.15     -12.7636
 2031      1066.38     -15.7818
 2032      1066.61     -18.0364
 2033      1066.84     -17.7545
 2034      1067.07     -17.6636
 2035       1067.3     -19.2545
 2036      1067.53     -19.0455
 2037      1067.76     -15.7909
 2038      1067.99     -9.78182
 2039      1068.22     -3.16364
 2040      1068.45      3.10909
 2041      1068.68      7.89091
 2042      1068.91         11.2
 2043      1069.14        14.54
 2044      1069.36      16.4556
 2045      1069.59      17.6125
 2046      1069.82      20.5714
 2047      1070.05         23.9
